time (s)	coil I (A)	last det (V)	int current (uC)
8683.281876	1.249178	0.187623	540.894226
8683.283016	1.719972	0.187623	2501.662109
8683.283923	1.684651	0.187623	4029.640381
8683.284795	1.639043	0.187623	5458.885742
8683.285906	1.582156	0.187623	7216.661133
8683.286894	1.534384	0.187623	8732.631836
8683.287780	1.492229	0.187623	10054.747070
8683.288724	0.741412	0.187623	10754.640625
8683.289780	0.091772	0.187623	10851.552734
8683.290661	0.090601	0.187623	10931.372070
8683.291525	0.090524	0.187623	11009.584961
8683.292547	0.090604	0.187623	11102.182617
8683.293508	0.090498	0.187623	11189.151367
8683.294380	0.090524	0.187623	11268.087891
8683.295255	0.090557	0.187623	11347.325195
8683.296349	0.090597	0.187623	11446.438477
8683.297248	0.090546	0.187623	11527.838867
8683.298108	0.090652	0.187623	11605.799805
8684.341823	1.299199	0.150092	718.457153
8684.342884	1.719679	0.150092	2543.036621
8684.343780	1.683519	0.150092	4051.469971
8684.344641	1.635729	0.150092	5459.832520
8684.345760	1.581467	0.150092	7229.494141
8684.346713	1.534944	0.150092	8692.295898
8684.347576	1.493873	0.150092	9981.508789
8684.348665	0.589709	0.150092	10623.702148
8684.349692	0.090912	0.150092	10717.068359
8684.350572	0.090568	0.150092	10796.767578
8684.351475	0.090692	0.150092	10878.662109
8684.352548	0.090615	0.150092	10975.892578
8684.353487	0.090601	0.150092	11060.966797
8684.354353	0.090637	0.150092	11139.458984
8684.355382	0.090699	0.150092	11232.789062
8684.356406	0.090549	0.150092	11325.511719
8684.357295	0.090637	0.150092	11406.087891
8684.358229	0.090641	0.150092	11490.746094
8685.324801	1.235698	0.176276	611.670593
8685.325858	1.719478	0.176276	2429.158447
8685.326801	1.684237	0.176276	4017.394043
8685.327669	1.637794	0.176276	5438.999512
8685.328755	1.582899	0.176276	7158.028320
8685.329766	1.534014	0.176276	8708.916016
8685.330662	1.491361	0.176276	10045.175781
8685.331649	0.652050	0.176276	10688.749023
8685.332714	0.091256	0.176276	10785.936523
8685.333622	0.090623	0.176276	10868.221680
8685.334484	0.090568	0.176276	10946.291016
8685.335572	0.090703	0.176276	11044.975586
8685.336555	0.090623	0.176276	11134.057617
8685.337436	0.090601	0.176276	11213.876953
8685.338457	0.090663	0.176276	11306.443359
8685.339512	0.090623	0.176276	11402.049805
8685.340384	0.090549	0.176276	11481.008789
8685.341244	0.090630	0.176276	11558.950195
8686.377408	1.194792	0.167478	511.371155
8686.378445	1.716987	0.167478	2291.886963
8686.379489	1.683995	0.167478	4049.978027
8686.380379	1.636849	0.167478	5506.773926
8686.381328	1.588337	0.167478	7014.105957
8686.382411	1.535731	0.167478	8677.302734
8686.383357	1.490837	0.167478	10087.634766
8686.384225	0.756559	0.167478	10744.328125
8686.385266	0.092699	0.167478	10840.828125
8686.386292	0.090557	0.167478	10933.739258
8686.387171	0.090586	0.167478	11013.364258
8686.388129	0.090630	0.167478	11100.187500
8686.389187	0.090604	0.167478	11196.046875
8686.390102	0.090542	0.167478	11278.892578
8686.390969	0.090623	0.167478	11357.461914
8686.392032	0.090608	0.167478	11453.778320
8686.393033	0.090568	0.167478	11544.436523
8686.393922	0.090597	0.167478	11624.977539
8687.363525	1.220947	0.161931	528.670166
8687.364449	1.718225	0.161931	2116.310059
8687.365315	1.695597	0.161931	3584.697021
8687.366378	1.642057	0.161931	5330.203613
8687.367273	1.595618	0.161931	6758.281250
8687.368211	1.550083	0.161931	8212.258789
8687.369081	1.507581	0.161931	9523.853516
8687.370083	1.115076	0.161931	10641.159180
8687.371009	0.122611	0.161931	10754.697266
8687.371865	0.090538	0.161931	10832.198242
8687.372866	0.090604	0.161931	10922.893555
8687.373763	0.090564	0.161931	11004.129883
8687.374673	0.090491	0.161931	11086.476562
8687.375551	0.090546	0.161931	11165.975586
8687.376560	0.090527	0.161931	11257.317383
8687.377471	0.090505	0.161931	11339.767578
8687.378342	0.090601	0.161931	11418.680664
8687.379431	0.090571	0.161931	11517.312500
8688.415313	1.340966	0.163639	765.691345
8688.416279	1.720635	0.163639	2427.824463
8688.417210	1.685493	0.163639	3997.018555
8688.418075	1.637666	0.163639	5413.599609
8688.419192	1.584214	0.163639	7183.166504
8688.420072	1.540408	0.163639	8538.725586
8688.420933	1.498997	0.163639	9829.361328
8688.421993	0.746206	0.163639	10620.339844
8688.422965	0.092860	0.163639	10710.599609
8688.423838	0.090597	0.163639	10789.690430
8688.424697	0.090688	0.163639	10867.591797
8688.425802	0.090718	0.163639	10967.834961
8688.426701	0.090619	0.163639	11049.301758
8688.427574	0.090623	0.163639	11128.415039
8688.428567	0.090692	0.163639	11218.472656
8688.429563	0.090623	0.163639	11308.732422
8688.430451	0.090509	0.163639	11389.104492
8688.431309	0.090656	0.163639	11466.886719
8689.401266	1.206306	0.156307	504.235962
8689.402381	1.719489	0.156307	2421.465820
8689.403283	1.686713	0.156307	3942.880615
8689.404165	1.640541	0.156307	5389.837891
8689.405177	1.589161	0.156307	6998.069336
8689.406158	1.540052	0.156307	8508.860352
8689.407090	1.496558	0.156307	9903.652344
8689.407963	0.910085	0.156307	10698.157227
8689.409064	0.094944	0.156307	10802.690430
8689.409949	0.090472	0.156307	10882.758789
8689.410808	0.090542	0.156307	10960.534180
8689.411905	0.090692	0.156307	11060.023437
8689.412869	0.090524	0.156307	11147.288086
8689.413738	0.090546	0.156307	11225.972656
8689.414594	0.090604	0.156307	11303.530273
8689.415691	0.090546	0.156307	11402.858398
8689.416587	0.090575	0.156307	11484.013672
8689.417459	0.090535	0.156307	11562.959961
8690.458143	1.290249	0.151127	659.317322
8690.459164	1.720118	0.151127	2415.558105
8690.460055	1.687317	0.151127	3918.957520
8690.461007	1.637966	0.151127	5478.301270
8690.462060	1.584185	0.151127	7146.447754
8690.462981	1.538917	0.151127	8563.791016
8690.463843	1.497283	0.151127	9854.448242
8690.464916	0.712863	0.151127	10619.349609
8690.465925	0.092029	0.151127	10712.207031
8690.466796	0.090553	0.151127	10791.079102
8690.467784	0.090667	0.151127	10880.657227
8690.468830	0.090659	0.151127	10975.486328
8690.469728	0.090560	0.151127	11056.809570
8690.470591	0.090571	0.151127	11134.972656
8690.471647	0.090692	0.151127	11230.743164
8690.472640	0.090571	0.151127	11320.680664
8690.473537	0.090615	0.151127	11401.962891
8690.474511	0.090634	0.151127	11490.240234
8691.436983	1.190149	0.166894	501.052704
8691.438019	1.717544	0.166894	2280.428223
8691.439053	1.684244	0.166894	4021.936768
8691.439944	1.636901	0.166894	5480.415039
8691.440899	1.589041	0.166894	6997.948730
8691.441962	1.536914	0.166894	8631.688477
8691.442897	1.492332	0.166894	10027.018555
8691.443769	0.813420	0.166894	10736.321289
8691.444832	0.093029	0.166894	10835.210937
8691.445819	0.090560	0.166894	10924.593750
8691.446709	0.090564	0.166894	11005.195312
8691.447672	0.090740	0.166894	11092.578125
8691.448716	0.090623	0.166894	11187.188477
8691.449625	0.090557	0.166894	11269.504883
8691.450484	0.090553	0.166894	11347.290039
8691.451558	0.090703	0.166894	11444.705078
8691.452550	0.090590	0.166894	11534.570312
8691.453422	0.090553	0.166894	11613.532227
8692.499892	1.185751	0.142865	498.015289
8692.500866	1.713538	0.142865	2167.000977
8692.501934	1.685841	0.142865	3967.479248
8692.502858	1.636952	0.142865	5480.022949
8692.503725	1.591234	0.142865	6859.623047
8692.504836	1.538104	0.142865	8568.457031
8692.505838	1.490870	0.142865	10062.308594
8692.506730	0.743840	0.142865	10725.814453
8692.507715	0.094988	0.142865	10819.376953
8692.508753	0.090546	0.142865	10913.363281
8692.509649	0.090553	0.142865	10994.499023
8692.510506	0.090571	0.142865	11072.118164
8692.511598	0.090747	0.142865	11171.213867
8692.512553	0.090590	0.142865	11257.726562
8692.513415	0.090527	0.142865	11335.760742
8692.514500	0.090582	0.142865	11434.042969
8692.515538	0.090612	0.142865	11528.097656
8692.516417	0.090608	0.142865	11607.742187
8693.468691	1.264303	0.184558	643.530212
8693.469569	1.719075	0.184558	2152.877930
8693.470434	1.693173	0.184558	3617.472168
8693.471565	1.636674	0.184558	5468.549805
8693.472526	1.587839	0.184558	6994.463379
8693.473393	1.545377	0.184558	8334.305664
8693.474418	1.496624	0.184558	9868.344727
8693.475467	0.708223	0.184558	10611.270508
8693.476358	0.093801	0.184558	10694.847656
8693.477290	0.090608	0.184558	10779.293945
8693.478344	0.090656	0.184558	10874.844727
8693.479286	0.090549	0.184558	10960.142578
8693.480148	0.090564	0.184558	11038.208984
8693.481207	0.090619	0.184558	11134.174805
8693.482216	0.090487	0.184558	11225.476562
8693.483101	0.090612	0.184558	11305.667969
8693.484062	0.090626	0.184558	11392.759766
8693.485107	0.090637	0.184558	11487.475586
8694.543798	1.187384	0.134663	501.076050
8694.544752	1.712794	0.134663	2135.081543
8694.545726	1.691162	0.134663	3782.273437
8694.546646	1.643229	0.134663	5294.043945
8694.547532	1.597489	0.134663	6709.418945
8694.548592	1.546644	0.134663	8348.862305
8694.549495	1.502604	0.134663	9705.713867
8694.550376	1.122085	0.134663	10694.270508
8694.551247	0.130653	0.134663	10808.069336
8694.552291	0.090483	0.134663	10902.534180
8694.553179	0.090582	0.134663	10982.971680
8694.554048	0.090513	0.134663	11061.626953
8694.555035	0.090630	0.134663	11151.079102
8694.555950	0.090612	0.134663	11233.988281
8694.556862	0.090586	0.134663	11316.602539
8694.557742	0.090608	0.134663	11396.337891
8694.558781	0.090564	0.134663	11490.433594
8694.559671	0.090549	0.134663	11571.022461
8695.502287	1.203508	0.190230	531.950623
8695.503153	1.715273	0.190230	2017.377441
8695.504031	1.696937	0.190230	3507.288330
8695.505136	1.642291	0.190230	5322.020020
8695.506039	1.595255	0.190230	6762.535156
8695.506910	1.552119	0.190230	8114.430664
8695.507947	1.502970	0.190230	9673.010742
8695.508931	1.006904	0.190230	10663.804687
8695.509804	0.109893	0.190230	10759.741211
8695.510661	0.090520	0.190230	10837.316406
8695.511787	0.090626	0.190230	10939.361328
8695.512683	0.090476	0.190230	11020.427734
8695.513546	0.090513	0.190230	11098.540039
8695.514611	0.090667	0.190230	11195.099609
8695.515584	0.090568	0.190230	11283.221680
8695.516455	0.090568	0.190230	11362.106445
8695.517309	0.090579	0.190230	11439.460937
8695.518416	0.090568	0.190230	11539.719727
8696.583703	1.244586	0.128226	645.940186
8696.584770	1.718566	0.128226	2479.649902
8696.585695	1.683091	0.128226	4036.508789
8696.586556	1.636315	0.128226	5445.375977
8696.587652	1.582156	0.128226	7179.418945
8696.588657	1.533245	0.128226	8720.330078
8696.589535	1.491182	0.128226	10029.587891
8696.590524	0.653818	0.128226	10676.213867
8696.591592	0.091157	0.128226	10773.569336
8696.592481	0.090520	0.128226	10854.041992
8696.593344	0.090553	0.128226	10932.189453
8696.594441	0.090575	0.128226	11031.549805
8696.595435	0.090553	0.128226	11121.559570
8696.596325	0.090538	0.128226	11202.138672
8696.597316	0.090714	0.128226	11292.036133
8696.598375	0.090560	0.128226	11387.939453
8696.599268	0.090560	0.128226	11468.809570
8696.600136	0.090582	0.128226	11547.434570
8697.544221	1.283921	0.178314	654.799622
8697.545230	1.719979	0.178314	2390.258789
8697.546108	1.688177	0.178314	3872.478516
8697.547102	1.636820	0.178314	5499.477539
8697.548164	1.582687	0.178314	7180.291016
8697.549068	1.538269	0.178314	8570.886719
8697.549931	1.495584	0.178314	9861.575195
8697.551035	0.674462	0.178314	10606.180664
8697.552026	0.091505	0.178314	10696.862305
8697.552897	0.090509	0.178314	10775.695312
8697.553882	0.090677	0.178314	10865.012695
8697.554945	0.090601	0.178314	10961.321289
8697.555830	0.090549	0.178314	11041.457031
8697.556703	0.090604	0.178314	11120.554687
8697.557803	0.090670	0.178314	11220.291992
8697.558759	0.090535	0.178314	11306.842773
8697.559624	0.090516	0.178314	11385.139648
8697.560657	0.090670	0.178314	11478.801758
8698.615268	1.242301	0.138679	564.004639
8698.616147	1.716482	0.138679	2072.792236
8698.617007	1.698241	0.138679	3533.279297
8698.618099	1.641822	0.138679	5326.149414
8698.618998	1.594178	0.138679	6759.315918
8698.619932	1.549241	0.138679	8206.306641
8698.620804	1.505922	0.138679	9519.470703
8698.621861	1.044686	0.138679	10623.704102
8698.622752	0.112518	0.138679	10723.958008
8698.623623	0.090458	0.138679	10802.747070
8698.624635	0.090637	0.138679	10894.471680
8698.625571	0.090590	0.138679	10979.263672
8698.626493	0.090623	0.138679	11062.817383
8698.627355	0.090575	0.138679	11140.892578
8698.628394	0.090645	0.138679	11235.072266
8698.629278	0.090549	0.138679	11315.118164
8698.630141	0.090586	0.138679	11393.293945
8698.631095	0.090659	0.138679	11479.783203
8699.592131	1.202816	0.170741	522.022278
8699.592999	1.714222	0.170741	2009.967285
8699.594099	1.688280	0.170741	3867.075195
8699.595090	1.635886	0.170741	5488.238281
8699.595984	1.590846	0.170741	6910.454590
8699.596985	1.542319	0.170741	8454.316406
8699.598020	1.493038	0.170741	9999.611328
8699.598923	0.809187	0.170741	10730.307617
8699.599780	0.098251	0.170741	10814.508789
8699.600880	0.090626	0.170741	10914.197266
8699.601847	0.090549	0.170741	11001.758789
8699.602703	0.090681	0.170741	11079.381836
8699.603794	0.090758	0.170741	11178.398437
8699.604832	0.090604	0.170741	11272.445312
8699.605701	0.090557	0.170741	11351.138672
8699.606601	0.090685	0.170741	11432.754883
8699.607679	0.090604	0.170741	11530.425781
8699.608631	0.090538	0.170741	11616.618164
8700.642752	1.198572	0.164009	512.988708
8700.643794	1.716482	0.164009	2301.562988
8700.644832	1.683296	0.164009	4048.824219
8700.645706	1.636736	0.164009	5479.331055
8700.646672	1.587957	0.164009	7013.296875
8700.647723	1.536028	0.164009	8627.662109
8700.648653	1.492152	0.164009	10015.363281
8700.649526	0.814541	0.164009	10726.458008
8700.650584	0.093204	0.164009	10825.068359
8700.651591	0.090527	0.164009	10916.229492
8700.652478	0.090516	0.164009	10996.517578
8700.653458	0.090568	0.164009	11085.273437
8700.654508	0.090626	0.164009	11180.430664
8700.655419	0.090612	0.164009	11262.977539
8700.656280	0.090608	0.164009	11340.991211
8700.657368	0.090674	0.164009	11439.644531
8700.658346	0.090520	0.164009	11528.172852
8700.659236	0.090505	0.164009	11608.722656
8701.638123	1.259905	0.179865	587.115601
8701.639007	1.717482	0.179865	2105.369629
8701.639998	1.691059	0.179865	3781.209473
8701.641061	1.635491	0.179865	5519.736328
8701.641975	1.588253	0.179865	6971.399902
8701.642844	1.544333	0.179865	8313.425781
8701.643947	1.493456	0.179865	9960.707031
8701.644944	0.684514	0.179865	10643.167969
8701.645842	0.093402	0.179865	10727.042969
8701.646840	0.090670	0.179865	10817.532227
8701.647885	0.090590	0.179865	10912.198242
8701.648777	0.090538	0.179865	10992.958008
8701.649655	0.090597	0.179865	11072.501953
8701.650737	0.090707	0.179865	11170.646484
8701.651692	0.090513	0.179865	11257.085937
8701.652553	0.090571	0.179865	11335.067383
8701.653590	0.090619	0.179865	11429.039062
8701.654626	0.090590	0.179865	11522.889648
8702.674453	1.270935	0.173951	644.364075
8702.675333	1.718317	0.173951	2156.482666
8702.676222	1.692261	0.173951	3660.902344
8702.677328	1.636040	0.173951	5470.362305
8702.678298	1.586730	0.173951	7009.490234
8702.679173	1.543890	0.173951	8360.394531
8702.680205	1.495184	0.173951	9903.424805
8702.681249	0.665632	0.173951	10598.344727
8702.682146	0.092937	0.173951	10681.708984
8702.683121	0.090593	0.173951	10770.037109
8702.684175	0.090590	0.173951	10865.518555
8702.685097	0.090524	0.173951	10948.981445
8702.685966	0.090571	0.173951	11027.687500
8702.687039	0.090659	0.173951	11124.964844
8702.688044	0.090571	0.173951	11215.989258
8702.688934	0.090593	0.173951	11296.617187
8702.689913	0.090703	0.173951	11385.416016
8702.690979	0.090652	0.173951	11482.050781
8703.676949	1.281932	0.170294	643.530029
8703.677951	1.719957	0.170294	2366.927246
8703.678843	1.688108	0.170294	3872.719482
8703.679821	1.637029	0.170294	5473.733398
8703.680886	1.582709	0.170294	7159.318359
8703.681806	1.537665	0.170294	8573.969727
8703.682672	1.495020	0.170294	9868.656250
8703.683782	0.639734	0.170294	10578.760742
8703.684744	0.091421	0.170294	10666.708008
8703.685621	0.090619	0.170294	10746.180664
8703.686621	0.090732	0.170294	10836.913086
8703.687673	0.090648	0.170294	10932.275391
8703.688556	0.090641	0.170294	11012.311523
8703.689433	0.090641	0.170294	11091.803711
8703.690515	0.090743	0.170294	11189.988281
8703.691479	0.090619	0.170294	11277.344727
8703.692342	0.090659	0.170294	11355.583984
8703.693390	0.090776	0.170294	11450.717773
8704.718294	1.221519	0.175925	538.689636
8704.719167	1.715435	0.175925	2036.263916
8704.720162	1.693030	0.175925	3720.828613
8704.721190	1.639215	0.175925	5405.941895
8704.722071	1.593186	0.175925	6809.539062
8704.722936	1.549321	0.175925	8149.702148
8704.724006	1.499974	0.175925	9754.674805
8704.724937	0.992087	0.175925	10678.308594
8704.725811	0.109255	0.175925	10773.797852
8704.726779	0.090612	0.175925	10861.509766
8704.727793	0.090612	0.175925	10953.389648
8704.728678	0.090626	0.175925	11033.593750
8704.729537	0.090582	0.175925	11111.404297
8704.730609	0.090736	0.175925	11208.673828
8704.731540	0.090604	0.175925	11293.026367
8704.732407	0.090535	0.175925	11371.519531
8704.733377	0.090696	0.175925	11459.494141
8704.734405	0.090626	0.175925	11552.658203
8705.707524	1.261941	0.144742	623.398804
8705.708400	1.717987	0.144742	2128.355469
8705.709316	1.693088	0.144742	3679.224609
8705.710412	1.636146	0.144742	5472.440918
8705.711367	1.587462	0.144742	6988.467285
8705.712236	1.544645	0.144742	8330.763672
8705.713308	1.494445	0.144742	9932.808594
8705.714330	0.678248	0.144742	10625.978516
8705.715221	0.093256	0.144742	10709.069336
8705.716179	0.090663	0.144742	10795.924805
8705.717236	0.090546	0.144742	10891.631836
8705.718147	0.090601	0.144742	10974.168945
8705.719003	0.090652	0.144742	11051.766602
8705.720070	0.090656	0.144742	11148.496094
8705.721074	0.090531	0.144742	11239.389648
8705.721948	0.090553	0.144742	11318.533203
8705.722933	0.090674	0.144742	11407.846680
8705.723982	0.090623	0.144742	11502.910156
8706.767367	1.257839	0.170628	626.403992
8706.768246	1.718412	0.170628	2136.888184
8706.769122	1.693835	0.170628	3620.687988
8706.770233	1.637794	0.170628	5440.277344
8706.771195	1.588528	0.170628	6968.440918
8706.772064	1.545692	0.170628	8311.647461
8706.773093	1.497026	0.170628	9852.087891
8706.774138	0.743881	0.170628	10629.443359
8706.775015	0.095387	0.170628	10713.097656
8706.775952	0.090593	0.170628	10797.983398
8706.777008	0.090652	0.170628	10893.711914
8706.777947	0.090593	0.170628	10978.779297
8706.778806	0.090582	0.170628	11056.589844
8706.779835	0.090802	0.170628	11150.025391
8706.780863	0.090619	0.170628	11243.181641
8706.781753	0.090623	0.170628	11323.835937
8706.782699	0.090677	0.170628	11409.617187
8706.783756	0.090688	0.170628	11505.474609
8707.737096	1.269401	0.150647	633.430969
8707.738007	1.718833	0.150647	2199.287842
8707.738870	1.692931	0.150647	3660.287109
8707.739966	1.636769	0.150647	5454.185547
8707.740962	1.585759	0.150647	7033.601562
8707.741858	1.542682	0.150647	8415.844727
8707.742849	1.495909	0.150647	9898.291016
8707.743920	0.676267	0.150647	10622.573242
8707.744808	0.092853	0.150647	10705.026367
8707.745671	0.090648	0.150647	10783.255859
8707.746761	0.090692	0.150647	10882.110352
8707.747713	0.090575	0.150647	10968.337891
8707.748570	0.090612	0.150647	11045.992187
8707.749650	0.090681	0.150647	11143.927734
8707.750672	0.090634	0.150647	11236.555664
8707.751548	0.090560	0.150647	11315.886719
8707.752460	0.090619	0.150647	11398.531250
8707.753535	0.090648	0.150647	11495.978516
8708.810304	1.329547	0.156017	744.546326
8708.811237	1.719580	0.156017	2348.914551
8708.812165	1.686962	0.156017	3914.415039
8708.813030	1.640295	0.156017	5333.270508
8708.814077	1.587971	0.156017	6995.876465
8708.814974	1.543997	0.156017	8380.841797
8708.815854	1.502494	0.156017	9703.036133
8708.816849	0.955089	0.156017	10653.349609
8708.817805	0.101927	0.156017	10750.791992
8708.818736	0.090568	0.156017	10835.110352
8708.819604	0.090582	0.156017	10913.735352
8708.820636	0.090601	0.156017	11007.235352
8708.821510	0.090538	0.156017	11086.366211
8708.822383	0.090641	0.156017	11165.496094
8708.823328	0.090601	0.156017	11251.113281
8708.824305	0.090546	0.156017	11339.576172
8708.825215	0.090560	0.156017	11421.986328
8708.826093	0.090590	0.156017	11501.524414
8709.774783	1.193595	0.139900	506.084259
8709.775651	1.713746	0.139900	1993.615967
8709.776706	1.690382	0.139900	3776.969238
8709.777651	1.640991	0.139900	5327.706055
8709.778538	1.595277	0.139900	6742.716797
8709.779501	1.549006	0.139900	8234.410156
8709.780538	1.499187	0.139900	9789.067383
8709.781440	1.010918	0.139900	10700.915039
8709.782299	0.113027	0.139900	10798.005859
8709.783363	0.090601	0.139900	10894.405273
8709.784300	0.090538	0.139900	10979.239258
8709.785174	0.090498	0.139900	11058.334961
8709.786110	0.090652	0.139900	11143.185547
8709.787163	0.090582	0.139900	11238.568359
8709.788040	0.090659	0.139900	11318.076172
8709.788908	0.090645	0.139900	11396.755859
8709.789927	0.090667	0.139900	11489.145508
8709.790893	0.090619	0.139900	11576.683594
8710.843872	1.240712	0.146031	571.968079
8710.844746	1.716500	0.146031	2072.189209
8710.845726	1.692894	0.146031	3731.225586
8710.846779	1.637439	0.146031	5455.448730
8710.847702	1.589810	0.146031	6922.842773
8710.848571	1.545905	0.146031	8266.233398
8710.849659	1.495536	0.146031	9893.376953
8710.850656	0.758452	0.146031	10649.553711
8710.851529	0.095889	0.146031	10733.264648
8710.852527	0.090663	0.146031	10823.746094
8710.853600	0.090645	0.146031	10921.007812
8710.854481	0.090641	0.146031	11000.862305
8710.855338	0.090615	0.146031	11078.519531
8710.856435	0.090681	0.146031	11177.997070
8710.857401	0.090571	0.146031	11265.489258
8710.858257	0.090597	0.146031	11343.040039
8710.859327	0.090721	0.146031	11440.112305
8710.860375	0.090641	0.146031	11535.103516
8711.823832	1.232959	0.125611	554.831482
8711.824706	1.715863	0.125611	2054.495850
8711.825686	1.692641	0.125611	3713.284668
8711.826733	1.638281	0.125611	5428.564941
8711.827640	1.591139	0.125611	6871.728027
8711.828513	1.546479	0.125611	8221.804687
8711.829624	1.495752	0.125611	9883.584961
8711.830614	0.788610	0.125611	10664.308594
8711.831480	0.096680	0.125611	10748.033203
8711.832546	0.090604	0.125611	10844.617187
8711.833586	0.090645	0.125611	10938.887695
8711.834477	0.090575	0.125611	11019.589844
8711.835400	0.090604	0.125611	11103.217773
8711.836468	0.090626	0.125611	11200.006836
8711.837416	0.090626	0.125611	11285.920898
8711.838279	0.090623	0.125611	11364.127930
8711.839341	0.090699	0.125611	11460.451172
8711.840349	0.090688	0.125611	11551.865234
8712.870367	1.245487	0.151675	571.678589
8712.871243	1.716328	0.151675	2075.182129
8712.872218	1.692982	0.151675	3725.839844
8712.873268	1.637875	0.151675	5445.608398
8712.874172	1.591121	0.151675	6883.981445
8712.875034	1.547366	0.151675	8217.810547
8712.876130	1.497096	0.151675	9858.627930
8712.877132	0.784966	0.151675	10645.164062
8712.878013	0.096683	0.151675	10730.341797
8712.879021	0.090597	0.151675	10821.663086
8712.880076	0.090597	0.151675	10917.243164
8712.880953	0.090542	0.151675	10996.648437
8712.881809	0.090604	0.151675	11074.206055
8712.882922	0.090659	0.151675	11175.109375
8712.883877	0.090615	0.151675	11261.646484
8712.884745	0.090568	0.151675	11340.258789
8712.885780	0.090710	0.151675	11434.144531
8712.886823	0.090615	0.151675	11528.656250
8713.869849	1.279358	0.143259	661.428040
8713.870745	1.718763	0.143259	2201.440186
8713.871612	1.692411	0.143259	3668.760498
8713.872707	1.637065	0.143259	5461.347168
8713.873709	1.585085	0.143259	7049.602539
8713.874598	1.542023	0.143259	8420.460937
8713.875581	1.495426	0.143259	9890.464844
8713.876662	0.680424	0.143259	10626.002930
8713.877527	0.093237	0.143259	10706.653320
8713.878435	0.090465	0.143259	10788.795898
8713.879310	0.090590	0.143259	10868.061523
8713.880300	0.090557	0.143259	10957.712891
8713.881233	0.090586	0.143259	11042.229492
8713.882161	0.090564	0.143259	11126.272461
8713.883028	0.090568	0.143259	11204.794922
8713.883986	0.090575	0.143259	11291.565430
8713.884914	0.090630	0.143259	11375.669922
8713.885777	0.090524	0.143259	11453.791992
8714.903094	1.319582	0.160489	721.811584
8714.904010	1.719338	0.160489	2296.725586
8714.904941	1.688086	0.160489	3868.333496
8714.905811	1.640812	0.160489	5295.839844
8714.906854	1.588802	0.160489	6952.960937
8714.907747	1.545304	0.160489	8332.916992
8714.908610	1.503201	0.160489	9630.179687
8714.909703	0.896114	0.160489	10609.632812
8714.910612	0.099760	0.160489	10700.314453
8714.911481	0.090645	0.160489	10779.084961
8714.912462	0.090637	0.160489	10868.000000
8714.913478	0.090571	0.160489	10960.020508
8714.914370	0.090560	0.160489	11040.800781
8714.915235	0.090670	0.160489	11119.230469
8714.916318	0.090685	0.160489	11217.442383
8714.917244	0.090564	0.160489	11301.304687
8714.918122	0.090549	0.160489	11380.806641
8714.919091	0.090688	0.160489	11468.683594
8715.908539	1.209928	0.142522	513.009460
8715.909641	1.718159	0.142522	2406.420898
8715.910548	1.685900	0.142522	3935.531738
8715.911425	1.639962	0.142522	5373.778320
8715.912441	1.589246	0.142522	6988.451660
8715.913448	1.539185	0.142522	8538.410156
8715.914333	1.497129	0.142522	9863.369141
8715.915199	0.959568	0.142522	10694.354492
8715.916298	0.096984	0.142522	10800.939453
8715.917186	0.090538	0.142522	10881.337891
8715.918059	0.090582	0.142522	10960.416016
8715.919041	0.090659	0.142522	11049.443359
8715.920057	0.090634	0.142522	11141.527344
8715.920943	0.090623	0.142522	11221.819336
8715.921803	0.090634	0.142522	11299.764648
8715.922901	0.090692	0.142522	11399.344727
8715.923826	0.090615	0.142522	11483.164062
8715.924692	0.090612	0.142522	11561.633789
8716.942859	1.267588	0.145431	633.793945
8716.943767	1.718738	0.145431	2194.407715
8716.944632	1.692550	0.145431	3658.463379
8716.945725	1.636923	0.145431	5447.619629
8716.946712	1.586235	0.145431	7013.233887
8716.947615	1.542268	0.145431	8405.902344
8716.948640	1.494642	0.145431	9937.910156
8716.949688	0.660480	0.145431	10630.092773
8716.950569	0.093029	0.145431	10712.050781
8716.951448	0.090645	0.145431	10791.727539
8716.952530	0.090743	0.145431	10889.912109
8716.953483	0.090542	0.145431	10976.198242
8716.954344	0.090667	0.145431	11054.261719
8716.955387	0.090762	0.145431	11148.925781
8716.956437	0.090696	0.145431	11244.156250
8716.957316	0.090623	0.145431	11323.813477
8716.958222	0.090663	0.145431	11405.954102
8716.959293	0.090747	0.145431	11503.144531
8717.944258	1.196730	0.133648	513.397034
8717.945295	1.716581	0.133648	2293.491455
8717.946342	1.682633	0.133648	4055.208252
8717.947228	1.635373	0.133648	5504.149414
8717.948165	1.588070	0.133648	6992.170898
8717.949225	1.536083	0.133648	8620.418945
8717.950163	1.491768	0.133648	10019.697266
8717.951031	0.825850	0.133648	10736.535156
8717.952091	0.093827	0.133648	10835.991211
8717.953111	0.090586	0.133648	10928.388672
8717.953986	0.090630	0.133648	11007.689453
8717.954938	0.090685	0.133648	11094.021484
8717.955991	0.090674	0.133648	11189.500977
8717.956907	0.090615	0.133648	11272.504883
8717.957774	0.090601	0.133648	11351.055664
8717.958824	0.090732	0.133648	11446.324219
8717.959831	0.090615	0.133648	11537.574219
8717.960713	0.090648	0.133648	11617.526367
8718.986696	1.206108	0.138647	522.244934
8718.987565	1.714186	0.138647	2011.872314
8718.988602	1.690228	0.138647	3764.639160
8718.989635	1.636509	0.138647	5455.152832
8718.990530	1.590696	0.138647	6878.825684
8718.991496	1.544253	0.138647	8370.574219
8718.992549	1.493855	0.138647	9943.603516
8718.993483	0.794330	0.138647	10685.507812
8718.994344	0.097438	0.138647	10769.401367
8718.995415	0.090707	0.138647	10866.548828
8718.996413	0.090604	0.138647	10956.971680
8718.997296	0.090597	0.138647	11036.968750
8718.998280	0.090780	0.138647	11126.295898
8718.999321	0.090623	0.138647	11220.633789
8719.000225	0.090630	0.138647	11302.563477
8719.001082	0.090630	0.138647	11380.233398
8719.002153	0.090586	0.138647	11477.250977
8719.003144	0.090590	0.138647	11567.025391
8719.976903	1.211180	0.133523	526.863464
8719.977766	1.713340	0.133523	2005.475830
8719.978866	1.687830	0.133523	3862.088379
8719.979833	1.637519	0.133523	5445.569824
8719.980702	1.592629	0.133523	6829.564941
8719.981791	1.540056	0.133523	8506.685547
8719.982825	1.490944	0.133523	10048.321289
8719.983711	0.770160	0.133523	10730.682617
8719.984649	0.096654	0.133523	10821.343750
8719.985724	0.090641	0.133523	10918.782227
8719.986651	0.090612	0.133523	11002.779297
8719.987508	0.090626	0.133523	11080.446289
8719.988533	0.090725	0.133523	11173.439453
8719.989553	0.090571	0.133523	11265.822266
8719.990435	0.090538	0.133523	11345.676758
8719.991400	0.090637	0.133523	11433.141602
8719.992458	0.090699	0.133523	11529.101562
8719.993386	0.090564	0.133523	11613.144531
8721.027533	1.214857	0.145258	528.462891
8721.028406	1.714211	0.145258	2024.969360
8721.029446	1.690019	0.145258	3782.589600
8721.030351	1.642489	0.145258	5269.041992
8721.031233	1.597229	0.145258	6677.797852
8721.032201	1.550120	0.145258	8178.313477
8721.033186	1.503076	0.145258	9658.843750
8721.034126	1.079026	0.145258	10673.127930
8721.034993	0.122179	0.145258	10779.056641
8721.036030	0.090498	0.145258	10872.903320
8721.036912	0.090568	0.145258	10952.784180
8721.037787	0.090560	0.145258	11032.024414
8721.038705	0.090645	0.145258	11115.236328
8721.039697	0.090615	0.145258	11205.126953
8721.040622	0.090531	0.145258	11288.868164
8721.041498	0.090604	0.145258	11368.237305
8721.042554	0.090590	0.145258	11463.900391
8721.043458	0.090608	0.145258	11545.809570
8722.011675	1.262512	0.137958	657.768860
8722.012708	1.719225	0.137958	2433.728271
8722.013603	1.685273	0.137958	3942.047852
8722.014468	1.638622	0.137958	5359.455566
8722.015553	1.584613	0.137958	7078.760742
8722.016480	1.539309	0.137958	8505.700195
8722.017355	1.497872	0.137958	9816.338867
8722.018335	0.855784	0.137958	10655.006836
8722.019379	0.093889	0.137958	10753.027344
8722.020252	0.090619	0.137958	10832.137695
8722.021112	0.090568	0.137958	10910.025391
8722.022150	0.090707	0.137958	11004.178711
8722.023089	0.090557	0.137958	11089.210937
8722.023966	0.090608	0.137958	11168.673828
8722.024899	0.090670	0.137958	11253.269531
8722.025949	0.090659	0.137958	11348.461914
8722.026839	0.090575	0.137958	11429.073242
8722.027701	0.090663	0.137958	11507.224609
8723.067325	1.205273	0.147759	512.241211
8723.068410	1.716885	0.147759	2375.061279
8723.069417	1.681483	0.147759	4068.314941
8723.070298	1.635103	0.147759	5508.840332
8723.071293	1.584518	0.147759	7085.435547
8723.072362	1.533036	0.147759	8724.250977
8723.073267	1.489483	0.147759	10072.232422
8723.074144	0.724709	0.147759	10707.802734
8723.075261	0.091666	0.147759	10810.194336
8723.076225	0.090524	0.147759	10897.458984
8723.077091	0.090637	0.147759	10975.951172
8723.078110	0.090710	0.147759	11068.384766
8723.079142	0.090652	0.147759	11161.937500
8723.080035	0.090597	0.147759	11242.840820
8723.080955	0.090623	0.147759	11326.213867
8723.082013	0.090641	0.147759	11422.112305
8723.082961	0.090593	0.147759	11507.995117
8723.083823	0.090619	0.147759	11586.108398
8724.046280	1.208020	0.149391	525.488708
8724.047147	1.713907	0.149391	2011.446533
8724.048208	1.689360	0.149391	3803.857910
8724.049218	1.636381	0.149391	5456.602539
8724.050102	1.590908	0.149391	6862.965332
8724.051096	1.543484	0.149391	8397.188477
8724.052139	1.493434	0.149391	9954.839844
8724.053062	0.805258	0.149391	10698.092773
8724.053923	0.097917	0.149391	10782.399414
8724.055025	0.090549	0.149391	10882.184570
8724.056009	0.090494	0.149391	10971.231445
8724.056880	0.090579	0.149391	11050.125000
8724.057858	0.090597	0.149391	11138.728516
8724.058909	0.090568	0.149391	11233.915039
8724.059807	0.090593	0.149391	11315.267578
8724.060674	0.090685	0.149391	11393.891602
8724.061768	0.090601	0.149391	11493.008789
8724.062742	0.090557	0.149391	11581.210937
8725.106140	1.217325	0.141225	540.492432
8725.107021	1.714962	0.141225	2051.374023
8725.107885	1.698310	0.141225	3518.714355
8725.108849	1.649033	0.141225	5108.382324
8725.109786	1.599174	0.141225	6606.808105
8725.110683	1.554950	0.141225	8001.598145
8725.111548	1.511294	0.141225	9308.867187
8725.112619	1.205918	0.141225	10600.405273
8725.113529	0.136436	0.141225	10724.561523
8725.114419	0.090516	0.141225	10805.121094
8725.115436	0.090670	0.141225	10897.333008
8725.116350	0.090586	0.141225	10980.128906
8725.117269	0.090659	0.141225	11063.444336
8725.118131	0.090685	0.141225	11141.614258
8725.119166	0.090575	0.141225	11235.359375
8725.120037	0.090601	0.141225	11314.272461
8725.120945	0.090586	0.141225	11396.524414
8725.121819	0.090630	0.141225	11475.735352
8726.083010	1.198202	0.160670	518.821411
8726.083884	1.714215	0.160670	2017.045410
8726.084921	1.690682	0.160670	3770.283203
8726.085893	1.639808	0.160670	5364.176758
8726.086774	1.594438	0.160670	6768.876953
8726.087664	1.549014	0.160670	8147.499023
8726.088771	1.499033	0.160670	9806.928711
8726.089661	1.022846	0.160670	10717.261719
8726.090516	0.114844	0.160670	10815.453125
8726.091571	0.090656	0.160670	10911.094727
8726.092540	0.090604	0.160670	10998.890625
8726.093416	0.090546	0.160670	11078.208984
8726.094289	0.090623	0.160670	11157.322266
8726.095418	0.090721	0.160670	11259.747070
8726.096315	0.090604	0.160670	11341.019531
8726.097180	0.090630	0.160670	11419.414062
8726.098249	0.090754	0.160670	11516.430664
8726.099227	0.090575	0.160670	11605.012695
8727.143937	1.230004	0.126695	612.541809
8727.144992	1.717778	0.126695	2424.797852
8727.145925	1.683296	0.126695	3995.312988
8727.146787	1.637388	0.126695	5406.741211
8727.147857	1.584155	0.126695	7101.787109
8727.148875	1.534376	0.126695	8663.782227
8727.149757	1.492445	0.126695	9980.119141
8727.150734	0.714672	0.126695	10678.353516
8727.151812	0.091670	0.126695	10777.173828
8727.152708	0.090608	0.126695	10858.358398
8727.153571	0.090626	0.126695	10936.568359
8727.154639	0.090696	0.126695	11033.431641
8727.155637	0.090582	0.126695	11123.833008
8727.156527	0.090568	0.126695	11204.438477
8727.157504	0.090604	0.126695	11292.958984
8727.158558	0.090579	0.126695	11388.428711
8727.159469	0.090612	0.126695	11470.975586
8727.160333	0.090637	0.126695	11549.286133
8728.121879	1.269617	0.163425	655.122192
8728.122760	1.718313	0.163425	2168.956055
8728.123636	1.691865	0.163425	3651.030029
8728.124744	1.635952	0.163425	5463.665039
8728.125721	1.586133	0.163425	7013.316895
8728.126591	1.543693	0.163425	8356.329102
8728.127632	1.494602	0.163425	9912.209961
8728.128671	0.675308	0.163425	10613.854492
8728.129548	0.093673	0.163425	10696.005859
8728.130483	0.090535	0.163425	10780.656250
8728.131540	0.090612	0.163425	10876.432617
8728.132470	0.090579	0.163425	10960.670898
8728.133328	0.090546	0.163425	11038.359375
8728.134361	0.090696	0.163425	11132.047852
8728.135384	0.090604	0.163425	11224.736328
8728.136259	0.090612	0.163425	11304.021484
8728.137214	0.090652	0.163425	11390.593750
8728.138279	0.090692	0.163425	11487.180664
8729.178628	1.282101	0.129551	625.665161
8729.179509	1.717335	0.129551	2138.637451
8729.180483	1.690942	0.129551	3785.615234
8729.181545	1.635227	0.129551	5522.226562
8729.182474	1.587264	0.129551	6996.794922
8729.183340	1.543425	0.129551	8333.401367
8729.184412	1.494177	0.129551	9935.159180
8729.185422	0.704637	0.129551	10646.842773
8729.186293	0.094270	0.129551	10728.952148
8729.187271	0.090626	0.129551	10817.584961
8729.188329	0.090615	0.129551	10913.456055
8729.189233	0.090505	0.129551	10995.272461
8729.190098	0.090641	0.129551	11073.676758
8729.191194	0.090667	0.129551	11173.046875
8729.192184	0.090546	0.129551	11262.687500
8729.193075	0.090564	0.129551	11343.379883
8729.194046	0.090732	0.129551	11431.481445
8729.195097	0.090612	0.129551	11526.713867
8730.165701	1.206021	0.147292	522.206909
8730.166565	1.713501	0.147292	2002.671753
8730.167629	1.689141	0.147292	3799.917480
8730.168635	1.636252	0.147292	5445.987305
8730.169525	1.591051	0.147292	6862.022949
8730.170506	1.543488	0.147292	8376.184570
8730.171564	1.493533	0.147292	9956.341797
8730.172476	0.818346	0.147292	10702.672852
8730.173336	0.098331	0.147292	10787.237305
8730.174429	0.090571	0.147292	10886.231445
8730.175417	0.090553	0.147292	10975.698242
8730.176309	0.090571	0.147292	11056.488281
8730.177315	0.090677	0.147292	11147.709961
8730.178353	0.090648	0.147292	11241.802734
8730.179237	0.090553	0.147292	11321.851562
8730.180094	0.090608	0.147292	11399.502930
8730.181202	0.090608	0.147292	11499.896484
8730.182159	0.090549	0.147292	11586.551758
8731.211334	1.319337	0.137100	745.425476
8731.212283	1.719067	0.137100	2376.820557
8731.213214	1.685750	0.137100	3946.253418
8731.214082	1.638461	0.137100	5368.437500
8731.215128	1.586726	0.137100	7028.152832
8731.216020	1.542825	0.137100	8404.352539
8731.216890	1.501220	0.137100	9710.414062
8731.217865	0.957979	0.137100	10644.443359
8731.218814	0.101210	0.137100	10740.491211
8731.219723	0.090491	0.137100	10822.747070
8731.220608	0.090560	0.137100	10902.892578
8731.221636	0.090579	0.137100	10996.007812
8731.222534	0.090586	0.137100	11077.353516
8731.223402	0.090597	0.137100	11155.991211
8731.224285	0.090612	0.137100	11236.000977
8731.225324	0.090575	0.137100	11330.108398
8731.226208	0.090535	0.137100	11410.140625
8731.227075	0.090549	0.137100	11488.646484
8732.207645	1.291018	0.132899	659.710266
8732.208610	1.719463	0.132899	2318.991943
8732.209470	1.690269	0.132899	3772.623047
8732.210522	1.634725	0.132899	5492.354004
8732.211591	1.581698	0.132899	7183.189453
8732.212470	1.537965	0.132899	8535.060547
8732.213410	1.493734	0.132899	9939.170898
8732.214484	0.611631	0.132899	10596.062500
8732.215416	0.091633	0.132899	10681.464844
8732.216281	0.090630	0.132899	10759.859375
8732.217325	0.090696	0.132899	10854.545898
8732.218349	0.090560	0.132899	10947.279297
8732.219236	0.090582	0.132899	11027.625977
8732.220187	0.090707	0.132899	11113.887695
8732.221231	0.090648	0.132899	11208.524414
8732.222152	0.090535	0.132899	11291.907227
8732.223018	0.090604	0.132899	11370.370117
8732.224092	0.090648	0.132899	11467.726562
8733.245893	1.201234	0.138724	517.731873
8733.246887	1.713505	0.138724	2220.955566
8733.247935	1.684471	0.138724	3986.281738
8733.248843	1.636205	0.138724	5471.955566
8733.249707	1.589784	0.138724	6845.528809
8733.250807	1.538320	0.138724	8537.681641
8733.251807	1.490581	0.138724	10028.262695
8733.252694	0.783809	0.138724	10723.500977
8733.253711	0.095629	0.138724	10820.754883
8733.254759	0.090560	0.138724	10915.662109
8733.255639	0.090524	0.138724	10995.323242
8733.256523	0.090593	0.138724	11075.407227
8733.257605	0.090652	0.138724	11173.492187
8733.258551	0.090505	0.138724	11259.110352
8733.259417	0.090524	0.138724	11337.503906
8733.260431	0.090681	0.138724	11429.455078
8733.261484	0.090637	0.138724	11524.896484
8733.262373	0.090469	0.138724	11605.323242
8734.247452	1.289912	0.131235	655.275330
8734.248409	1.719327	0.131235	2300.671631
8734.249275	1.690671	0.131235	3764.792969
8734.250327	1.635813	0.131235	5485.667969
8734.251364	1.583463	0.131235	7127.719238
8734.252255	1.539547	0.131235	8499.456055
8734.253190	1.495221	0.131235	9897.487305
8734.254277	0.653335	0.131235	10607.662109
8734.255216	0.092062	0.131235	10694.108398
8734.256073	0.090465	0.131235	10771.636719
8734.257104	0.090670	0.131235	10865.117187
8734.258128	0.090593	0.131235	10957.884766
8734.259017	0.090546	0.131235	11038.379883
8734.259976	0.090659	0.131235	11125.322266
8734.261030	0.090571	0.131235	11220.784180
8734.261951	0.090520	0.131235	11304.153320
8734.262821	0.090674	0.131235	11383.039062
8734.263894	0.090645	0.131235	11480.300781
8735.280646	1.263307	0.145979	630.390137
8735.281610	1.719302	0.145979	2287.796875
8735.282479	1.690909	0.145979	3757.197266
8735.283550	1.634795	0.145979	5508.062500
8735.284595	1.581921	0.145979	7161.170410
8735.285493	1.537958	0.145979	8542.256836
8735.286426	1.493961	0.145979	9936.123047
8735.287495	0.628176	0.145979	10607.643555
8735.288426	0.091908	0.145979	10693.209961
8735.289288	0.090560	0.145979	10771.272461
8735.290357	0.090641	0.145979	10868.167969
8735.291376	0.090608	0.145979	10960.497070
8735.292256	0.090549	0.145979	11040.180664
8735.293233	0.090615	0.145979	11128.711914
8735.294285	0.090571	0.145979	11223.993164
8735.295203	0.090626	0.145979	11307.188477
8735.296060	0.090579	0.145979	11384.814453
8735.297103	0.090710	0.145979	11479.425781
8736.284191	1.286429	0.144847	654.792542
8736.285112	1.718851	0.144847	2237.854736
8736.285974	1.691162	0.144847	3695.636475
8736.287075	1.635216	0.144847	5496.009277
8736.288066	1.584408	0.144847	7066.157227
8736.288941	1.541682	0.144847	8415.128906
8736.289939	1.495214	0.144847	9907.351562
8736.291004	0.670825	0.144847	10621.780273
8736.291902	0.092721	0.144847	10705.043945
8736.292758	0.090659	0.144847	10782.648437
8736.293846	0.090623	0.144847	10881.246094
8736.294802	0.090509	0.144847	10967.772461
8736.295678	0.090560	0.144847	11047.103516
8736.296675	0.090710	0.144847	11137.541992
8736.297740	0.090630	0.144847	11234.062500
8736.298629	0.090571	0.144847	11314.580078
8736.299497	0.090674	0.144847	11393.285156
8736.300613	0.090685	0.144847	11494.489258
8737.321414	1.198242	0.149093	521.235352
8737.322279	1.713874	0.149093	2003.736816
8737.323283	1.692294	0.149093	3702.799805
8737.324347	1.637267	0.149093	5444.851562
8737.325245	1.590513	0.149093	6873.131836
8737.326131	1.545472	0.149093	8242.419922
8737.327228	1.495261	0.149093	9882.721680
8737.328192	0.812333	0.149093	10665.810547
8737.329115	0.096083	0.149093	10754.495117
8737.329995	0.090513	0.149093	10834.146484
8737.330902	0.090520	0.149093	10916.248047
8737.331854	0.090590	0.149093	11002.489258
8737.332776	0.090553	0.149093	11085.979492
8737.333665	0.090601	0.149093	11166.523437
8737.334572	0.090612	0.149093	11248.708008
8737.335526	0.090564	0.149093	11335.106445
8737.336412	0.090564	0.149093	11415.345703
8737.337333	0.090604	0.149093	11498.791992
8738.316727	1.199297	0.143844	504.903961
8738.317775	1.718379	0.143844	2305.765137
8738.318653	1.689913	0.143844	3789.509033
8738.319523	1.644126	0.143844	5219.898437
8738.320521	1.594684	0.143844	6811.392578
8738.321464	1.547256	0.143844	8270.455078
8738.322370	1.503691	0.143844	9632.799805
8738.323251	1.171337	0.143844	10664.748047
8738.324291	0.113126	0.143844	10782.399414
8738.325190	0.090461	0.143844	10863.724609
8738.326060	0.090560	0.143844	10942.511719
8738.326994	0.090623	0.143844	11027.153320
8738.327989	0.090568	0.143844	11117.268555
8738.328903	0.090531	0.143844	11200.013672
8738.329770	0.090575	0.143844	11278.541992
8738.330827	0.090619	0.143844	11374.326172
8738.331717	0.090531	0.143844	11454.898437
8738.332647	0.090516	0.143844	11539.079102
8739.368381	1.191405	0.133757	505.155731
8739.369251	1.713684	0.133757	1996.060913
8739.370168	1.696146	0.133757	3551.426758
8739.371161	1.643906	0.133757	5183.825684
8739.372090	1.596515	0.133757	6666.987793
8739.372977	1.553258	0.133757	8044.727539
8739.374008	1.505607	0.133757	9597.007812
8739.374915	1.132258	0.133757	10623.965820
8739.375842	0.127174	0.133757	10741.856445
8739.376703	0.090527	0.133757	10819.800781
8739.377759	0.090487	0.133757	10915.355469
8739.378639	0.090535	0.133757	10995.026367
8739.379502	0.090615	0.133757	11073.227539
8739.380484	0.090520	0.133757	11162.118164
8739.381413	0.090549	0.133757	11246.238281
8739.382320	0.090524	0.133757	11328.343750
8739.383191	0.090560	0.133757	11407.221680
8739.384229	0.090593	0.133757	11501.257812
8740.347410	1.274853	0.122631	633.602173
8740.348292	1.717119	0.122631	2148.101074
8740.349157	1.694758	0.122631	3614.066895
8740.350213	1.640065	0.122631	5345.975098
8740.351175	1.590802	0.122631	6876.326660
8740.352047	1.547589	0.122631	8225.824219
8740.352939	1.503754	0.122631	9567.172852
8740.354049	0.911243	0.122631	10578.652344
8740.354948	0.100986	0.122631	10669.439453
8740.355814	0.090505	0.122631	10747.817383
8740.356835	0.090688	0.122631	10840.410156
8740.357807	0.090524	0.122631	10928.399414
8740.358681	0.090575	0.122631	11007.561523
8740.359559	0.090648	0.122631	11087.150391
8740.360650	0.090604	0.122631	11186.000000
8740.361531	0.090615	0.122631	11265.832031
8740.362390	0.090579	0.122631	11343.638672
8740.363483	0.090743	0.122631	11442.821289
8741.415355	1.192650	0.122550	505.683685
8741.416390	1.716259	0.122550	2282.011230
8741.417422	1.682856	0.122550	4018.719238
8741.418304	1.636260	0.122550	5461.900391
8741.419275	1.586960	0.122550	7002.838867
8741.420349	1.535244	0.122550	8651.691406
8741.421259	1.491189	0.122550	10008.673828
8741.422131	0.816584	0.122550	10720.735352
8741.423186	0.093395	0.122550	10819.266602
8741.424188	0.090494	0.122550	10909.942383
8741.425079	0.090491	0.122550	10990.569336
8741.426047	0.090732	0.122550	11078.398437
8741.427104	0.090784	0.122550	11174.356445
8741.428010	0.090590	0.122550	11256.430664
8741.428872	0.090520	0.122550	11334.458984
8741.429982	0.090634	0.122550	11435.062500
8741.430952	0.090564	0.122550	11522.909180
8741.431829	0.090502	0.122550	11602.279297
8742.380062	1.288528	0.117370	661.014771
8742.381004	1.719111	0.117370	2280.417480
8742.381868	1.690876	0.117370	3741.334717
8742.382930	1.635857	0.117370	5478.614746
8742.383949	1.583463	0.117370	7092.163574
8742.384838	1.540269	0.117370	8461.461914
8742.385805	1.495291	0.117370	9907.408203
8742.386870	0.663007	0.117370	10613.509766
8742.387797	0.092487	0.117370	10699.245117
8742.388657	0.090590	0.117370	10777.152344
8742.389719	0.090707	0.117370	10873.483398
8742.390734	0.090586	0.117370	10965.427734
8742.391602	0.090608	0.117370	11044.075195
8742.392584	0.090645	0.117370	11133.087891
8742.393638	0.090612	0.117370	11228.592773
8742.394548	0.090549	0.117370	11310.992187
8742.395416	0.090601	0.117370	11389.633789
8742.396504	0.090685	0.117370	11488.298828
8743.451098	1.233669	0.129475	556.384888
8743.451960	1.714006	0.129475	2033.858276
8743.453063	1.686317	0.129475	3893.866211
8743.454059	1.633912	0.129475	5521.243164
8743.454943	1.588612	0.129475	6925.576172
8743.455958	1.540074	0.129475	8488.751953
8743.457011	1.490574	0.129475	10058.326172
8743.457895	0.759283	0.129475	10729.533203
8743.458750	0.096291	0.129475	10811.862305
8743.459851	0.090714	0.129475	10911.738281
8743.460813	0.090557	0.129475	10998.853516
8743.461682	0.090524	0.129475	11077.518555
8743.462712	0.090692	0.129475	11170.931641
8743.463757	0.090612	0.129475	11265.621094
8743.464640	0.090615	0.129475	11345.634766
8743.465529	0.090531	0.129475	11426.117187
8743.466616	0.090656	0.129475	11524.660156
8743.467556	0.090542	0.129475	11609.769531
8744.420811	1.203175	0.123585	526.990662
8744.421679	1.714149	0.123585	2014.872070
8744.422721	1.689954	0.123585	3775.803711
8744.423744	1.636490	0.123585	5449.933594
8744.424632	1.590597	0.123585	6862.383789
8744.425603	1.544385	0.123585	8361.981445
8744.426663	1.493698	0.123585	9945.300781
8744.427590	0.805137	0.123585	10691.662109
8744.428449	0.097998	0.123585	10775.842773
8744.429511	0.090626	0.123585	10872.087891
8744.430523	0.090553	0.123585	10963.727539
8744.431396	0.090579	0.123585	11042.802734
8744.432372	0.090714	0.123585	11131.339844
8744.433437	0.090648	0.123585	11227.879883
8744.434335	0.090612	0.123585	11309.249023
8744.435199	0.090619	0.123585	11387.543945
8744.436256	0.090663	0.123585	11483.375000
8744.437254	0.090582	0.123585	11573.776367
8745.481656	1.193595	0.126707	501.309875
8745.482731	1.716595	0.126707	2346.649902
8745.483747	1.681549	0.126707	4055.103760
8745.484630	1.634857	0.126707	5498.682617
8745.485620	1.585258	0.126707	7068.087891
8745.486680	1.533545	0.126707	8693.645508
8745.487590	1.490266	0.126707	10049.787109
8745.488457	0.775437	0.126707	10722.090820
8745.489524	0.092468	0.126707	10820.754883
8745.490522	0.090516	0.126707	10911.089844
8745.491409	0.090546	0.126707	10991.404297
8745.492379	0.090656	0.126707	11079.339844
8745.493444	0.090634	0.126707	11175.864258
8745.494336	0.090560	0.126707	11256.644531
8745.495198	0.090527	0.126707	11334.678711
8745.496311	0.090656	0.126707	11435.578125
8745.497277	0.090516	0.126707	11523.016602
8745.498143	0.090586	0.126707	11601.463867
8746.466823	1.272605	0.126107	622.303894
8746.467710	1.717046	0.126107	2145.323730
8746.468590	1.693927	0.126107	3635.979492
8746.469529	1.645045	0.126107	5180.676758
8746.470542	1.593219	0.126107	6794.607422
8746.471463	1.547904	0.126107	8220.226562
8746.472332	1.506412	0.126107	9529.298828
8746.473398	1.029946	0.126107	10627.221680
8746.474275	0.114225	0.126107	10727.396484
8746.475139	0.090432	0.126107	10805.530273
8746.476005	0.090663	0.126107	10884.043945
8746.477045	0.090487	0.126107	10978.150391
8746.477935	0.090608	0.126107	11058.791016
8746.478806	0.090579	0.126107	11137.684570
8746.479784	0.090549	0.126107	11226.242187
8746.480727	0.090549	0.126107	11311.629883
8746.481648	0.090509	0.126107	11394.988281
8746.482509	0.090659	0.126107	11473.045898
8747.511234	1.199220	0.121829	515.664551
8747.512094	1.712325	0.121829	1988.264282
8747.513213	1.687756	0.121829	3876.863525
8747.514102	1.639244	0.121829	5334.151855
8747.514981	1.594779	0.121829	6735.962891
8747.515983	1.545762	0.121829	8284.816406
8747.516987	1.497675	0.121829	9788.481445
8747.517884	1.009852	0.121829	10694.319336
8747.518744	0.112478	0.121829	10791.050781
8747.519843	0.090590	0.121829	10890.608398
8747.520755	0.090505	0.121829	10973.149414
8747.521633	0.090520	0.121829	11052.625977
8747.522635	0.090626	0.121829	11143.433594
8747.523616	0.090553	0.121829	11232.265625
8747.524501	0.090597	0.121829	11312.444336
8747.525359	0.090487	0.121829	11390.082031
8747.526435	0.090615	0.121829	11487.583984
8747.527336	0.090494	0.121829	11569.119141
8748.512782	1.274722	0.110167	645.009155
8748.513726	1.718932	0.110167	2267.680664
8748.514598	1.690613	0.110167	3741.895020
8748.515634	1.636209	0.110167	5437.006836
8748.516674	1.583529	0.110167	7083.876953
8748.517570	1.540049	0.110167	8463.760742
8748.518527	1.495481	0.110167	9894.935547
8748.519590	0.673063	0.110167	10610.401367
8748.520521	0.092260	0.110167	10696.294922
8748.521383	0.090575	0.110167	10774.370117
8748.522472	0.090593	0.110167	10873.026367
8748.523465	0.090538	0.110167	10962.930664
8748.524353	0.090553	0.110167	11043.341797
8748.525324	0.090645	0.110167	11131.357422
8748.526357	0.090590	0.110167	11224.936523
8748.527263	0.090527	0.110167	11306.954102
8748.528125	0.090637	0.110167	11385.083008
8748.529216	0.090663	0.110167	11483.996094
8749.544910	1.210829	0.125261	537.607971
8749.546002	1.716833	0.125261	2412.390137
8749.546956	1.682677	0.125261	4017.664062
8749.547820	1.636999	0.125261	5432.031738
8749.548852	1.584855	0.125261	7067.601562
8749.549890	1.534457	0.125261	8660.367187
8749.550775	1.492229	0.125261	9980.990234
8749.551727	0.764161	0.125261	10708.471680
8749.552781	0.092087	0.125261	10805.532227
8749.553709	0.090612	0.125261	10889.620117
8749.554575	0.090604	0.125261	10968.083008
8749.555624	0.090699	0.125261	11063.226562
8749.556647	0.090590	0.125261	11155.899414
8749.557536	0.090663	0.125261	11236.499023
8749.558507	0.090604	0.125261	11324.475586
8749.559553	0.090667	0.125261	11419.312500
8749.560476	0.090568	0.125261	11502.906250
8749.561339	0.090641	0.125261	11581.128906
8750.550460	1.200377	0.113321	513.761475
8750.551329	1.712069	0.113321	2001.549438
8750.552439	1.686149	0.113321	3873.174316
8750.553423	1.635282	0.113321	5482.291992
8750.554296	1.590161	0.113321	6870.502441
8750.555371	1.537661	0.113321	8523.488281
8750.556421	1.488534	0.113321	10086.449219
8750.557322	0.691370	0.113321	10709.373047
8750.558268	0.094438	0.113321	10798.711914
8750.559334	0.090604	0.113321	10895.295898
8750.560262	0.090597	0.113321	10979.370117
8750.561131	0.090677	0.113321	11058.168945
8750.562199	0.090773	0.113321	11155.114258
8750.563204	0.090593	0.113321	11246.160156
8750.564091	0.090582	0.113321	11326.506836
8750.565050	0.090692	0.113321	11413.480469
8750.566090	0.090696	0.113321	11507.803711
8750.567023	0.090579	0.113321	11592.313477
8751.583694	1.216164	0.138172	535.112366
8751.584557	1.712831	0.138172	2013.285400
8751.585669	1.686346	0.138172	3888.502441
8751.586642	1.635575	0.138172	5479.916992
8751.587508	1.590927	0.138172	6857.659180
8751.588538	1.541521	0.138172	8445.425781
8751.589584	1.492038	0.138172	10006.097656
8751.590471	0.806781	0.138172	10721.712891
8751.591363	0.097756	0.138172	10808.911133
8751.592466	0.090575	0.138172	10908.815430
8751.593415	0.090560	0.138172	10994.756836
8751.594278	0.090615	0.138172	11072.958008
8751.595290	0.090813	0.138172	11164.860352
8751.596327	0.090630	0.138172	11258.843750
8751.597209	0.090582	0.138172	11338.737305
8751.598142	0.090659	0.138172	11423.322266
8751.599214	0.090608	0.138172	11520.454102
8751.600146	0.090568	0.138172	11604.863281
8752.582180	1.283144	0.125966	658.253113
8752.583185	1.718595	0.125966	2385.440918
8752.584070	1.686823	0.125966	3878.278809
8752.585066	1.634022	0.125966	5505.765137
8752.586138	1.580947	0.125966	7200.540527
8752.587013	1.537060	0.125966	8545.468750
8752.587904	1.493727	0.125966	9876.378906
8752.589007	0.633702	0.125966	10575.352539
8752.589962	0.091564	0.125966	10662.795898
8752.590833	0.090546	0.125966	10741.661133
8752.591861	0.090615	0.125966	10834.813477
8752.592891	0.090593	0.125966	10928.125000
8752.593779	0.090568	0.125966	11008.548828
8752.594710	0.090549	0.125966	11092.850586
8752.595775	0.090560	0.125966	11189.296875
8752.596716	0.090579	0.125966	11274.531250
8752.597578	0.090604	0.125966	11352.631836
8752.598617	0.090729	0.125966	11446.899414
8753.627580	1.205577	0.133036	513.575989
8753.628676	1.717321	0.133036	2395.759277
8753.629675	1.680630	0.133036	4074.708496
8753.630572	1.633652	0.133036	5540.094727
8753.631582	1.582687	0.133036	7138.608398
8753.632650	1.531370	0.133036	8774.111328
8753.633553	1.487681	0.133036	10117.487305
8753.634438	0.692952	0.133036	10730.750000
8753.635542	0.091498	0.133036	10831.763672
8753.636496	0.090498	0.133036	10918.098633
8753.637357	0.090571	0.133036	10996.080078
8753.638392	0.090645	0.133036	11089.897461
8753.639416	0.090615	0.133036	11182.687500
8753.640295	0.090560	0.133036	11262.290039
8753.641213	0.090615	0.133036	11345.474609
8753.642291	0.090663	0.133036	11443.208984
8753.643229	0.090538	0.133036	11528.133789
8753.644088	0.090571	0.133036	11605.934570
8754.613695	1.189757	0.121116	504.456970
8754.614678	1.712245	0.121116	2187.593750
8754.615735	1.684039	0.121116	3967.623047
8754.616642	1.635597	0.121116	5451.109375
8754.617515	1.589971	0.121116	6839.153809
8754.618589	1.538738	0.121116	8491.757812
8754.619586	1.491123	0.121116	9978.407227
8754.620486	0.808308	0.121116	10705.884766
8754.621472	0.096335	0.121116	10800.871094
8754.622526	0.090641	0.121116	10896.406250
8754.623426	0.090571	0.121116	10977.919922
8754.624289	0.090626	0.121116	11056.129883
8754.625392	0.090685	0.121116	11156.155273
8754.626353	0.090546	0.121116	11243.169922
8754.627220	0.090571	0.121116	11321.695312
8754.628280	0.090743	0.121116	11417.883789
8754.629317	0.090527	0.121116	11511.760742
8754.630205	0.090593	0.121116	11592.208008
8755.672580	1.263332	0.116374	612.716248
8755.673467	1.717104	0.116374	2135.787842
8755.674333	1.694352	0.116374	3603.096436
8755.675400	1.639266	0.116374	5352.193359
8755.676362	1.589989	0.116374	6881.762695
8755.677239	1.546930	0.116374	8238.419922
8755.678179	1.502494	0.116374	9650.763672
8755.679241	0.905717	0.116374	10612.634766
8755.680117	0.102751	0.116374	10702.645508
8755.680976	0.090575	0.116374	10780.449219
8755.682028	0.090677	0.116374	10875.841797
8755.682974	0.090542	0.116374	10961.494141
8755.683837	0.090553	0.116374	11039.641602
8755.684728	0.090604	0.116374	11120.370117
8755.685823	0.090579	0.116374	11219.553711
8755.686713	0.090560	0.116374	11300.152344
8755.687578	0.090553	0.116374	11378.480469
8755.688595	0.090710	0.116374	11470.733398
8756.647353	1.186417	0.112100	500.668060
8756.648359	1.712948	0.112100	2223.893799
8756.649358	1.685665	0.112100	3907.873535
8756.650240	1.639047	0.112100	5353.512695
8756.651107	1.592875	0.112100	6734.535156
8756.652220	1.540463	0.112100	8449.070312
8756.653144	1.496536	0.112100	9831.869141
8756.654027	0.989165	0.112100	10705.301758
8756.655011	0.108164	0.112100	10811.735352
8756.656012	0.090553	0.112100	10902.378906
8756.656904	0.090593	0.112100	10983.188477
8756.657764	0.090619	0.112100	11061.121094
8756.658843	0.090667	0.112100	11158.950195
8756.659752	0.090564	0.112100	11241.272461
8756.660621	0.090553	0.112100	11319.962891
8756.661617	0.090688	0.112100	11410.289062
8756.662633	0.090535	0.112100	11502.272461
8756.663518	0.090608	0.112100	11582.460937
8757.715467	1.263168	0.105655	635.373352
8757.716367	1.717756	0.105655	2181.354004
8757.717233	1.691686	0.105655	3646.354004
8757.718319	1.636461	0.105655	5423.550781
8757.719315	1.585389	0.105655	7002.598633
8757.720213	1.541953	0.105655	8387.272461
8757.721199	1.495327	0.105655	9861.665039
8757.722264	0.704011	0.105655	10611.436523
8757.723150	0.093344	0.105655	10694.138672
8757.724010	0.090626	0.105655	10772.077148
8757.725124	0.090637	0.105655	10873.046875
8757.726086	0.090542	0.105655	10960.148437
8757.726950	0.090593	0.105655	11038.420898
8757.727991	0.090688	0.105655	11132.827148
8757.729028	0.090586	0.105655	11226.764648
8757.729916	0.090579	0.105655	11307.198242
8757.730840	0.090670	0.105655	11390.977539
8757.731904	0.090674	0.105655	11487.454102
8758.682138	1.276604	0.114066	654.897888
8758.683027	1.717734	0.114066	2181.963623
8758.683888	1.690997	0.114066	3637.912354
8758.685018	1.635308	0.114066	5485.810059
8758.685976	1.586591	0.114066	7005.763672
8758.686837	1.543619	0.114066	8334.820312
8758.687885	1.493954	0.114066	9900.484375
8758.688933	0.667991	0.114066	10600.539062
8758.689821	0.092988	0.114066	10683.112305
8758.690755	0.090630	0.114066	10767.760742
8758.691817	0.090648	0.114066	10864.029297
8758.692754	0.090546	0.114066	10948.870117
8758.693627	0.090641	0.114066	11028.000000
8758.694662	0.090656	0.114066	11121.828125
8758.695682	0.090630	0.114066	11214.270508
8758.696578	0.090582	0.114066	11295.432617
8758.697529	0.090692	0.114066	11381.680664
8758.698580	0.090586	0.114066	11476.886719
8759.753147	1.187336	0.106364	503.430664
8759.754136	1.711681	0.106364	2196.283203
8759.755214	1.683043	0.106364	4010.603760
8759.756120	1.634564	0.106364	5491.519043
8759.756994	1.588689	0.106364	6880.033203
8759.758050	1.538434	0.106364	8504.619141
8759.759039	1.491182	0.106364	9979.397461
8759.759938	0.809205	0.106364	10706.873047
8759.760921	0.097101	0.106364	10802.323242
8759.761983	0.090527	0.106364	10898.462891
8759.762888	0.090564	0.106364	10980.422852
8759.763749	0.090542	0.106364	11058.379883
8759.764852	0.090692	0.106364	11158.413086
8759.765824	0.090538	0.106364	11246.416016
8759.766691	0.090527	0.106364	11324.903320
8759.767800	0.090659	0.106364	11425.444336
8759.768830	0.090593	0.106364	11518.755859
8759.769719	0.090623	0.106364	11599.319336
8760.718826	1.246762	0.123920	587.224670
8760.719700	1.715709	0.123920	2086.754639
8760.720686	1.691459	0.123920	3754.533203
8760.721748	1.635322	0.123920	5491.245117
8760.722671	1.587957	0.123920	6956.928711
8760.723533	1.544557	0.123920	8288.336914
8760.724620	1.494635	0.123920	9913.004883
8760.725627	0.729708	0.123920	10647.821289
8760.726498	0.094677	0.123920	10730.284180
8760.727492	0.090626	0.123920	10820.366211
8760.728552	0.090593	0.123920	10916.395508
8760.729451	0.090575	0.123920	10997.822266
8760.730317	0.090597	0.123920	11076.279297
8760.731409	0.090619	0.123920	11175.235352
8760.732390	0.090549	0.123920	11264.064453
8760.733253	0.090575	0.123920	11342.230469
8760.734330	0.090769	0.123920	11439.988281
8760.735363	0.090641	0.123920	11533.620117
8761.791990	1.257407	0.106606	607.327698
8761.792873	1.716742	0.106606	2123.210693
8761.793828	1.691228	0.106606	3738.333496
8761.794894	1.635645	0.106606	5481.930664
8761.795827	1.587986	0.106606	6963.521484
8761.796690	1.544535	0.106606	8296.455078
8761.797737	1.495144	0.106606	9861.871094
8761.798786	0.723475	0.106606	10620.796875
8761.799654	0.094603	0.106606	10702.912109
8761.800631	0.090557	0.106606	10791.385742
8761.801688	0.090575	0.106606	10887.123047
8761.802604	0.090623	0.106606	10970.133789
8761.803471	0.090688	0.106606	11048.760742
8761.804555	0.090597	0.106606	11146.967773
8761.805551	0.090626	0.106606	11237.231445
8761.806443	0.090542	0.106606	11317.995117
8761.807432	0.090743	0.106606	11407.740234
8761.808487	0.090553	0.106606	11503.273437
8762.755530	1.219838	0.130147	535.508728
8762.756407	1.714171	0.130147	2038.836914
8762.757422	1.690569	0.130147	3754.764160
8762.758474	1.636014	0.130147	5475.851562
8762.759364	1.589978	0.130147	6890.932129
8762.760265	1.544916	0.130147	8282.901367
8762.761344	1.494785	0.130147	9895.774414
8762.762305	0.818661	0.130147	10682.507812
8762.763162	0.098196	0.130147	10766.661133
8762.764203	0.090538	0.130147	10860.911133
8762.765247	0.090571	0.130147	10955.467773
8762.766117	0.090542	0.130147	11034.239258
8762.767069	0.090637	0.130147	11120.525391
8762.768122	0.090645	0.130147	11215.973633
8762.769057	0.090579	0.130147	11300.665039
8762.769923	0.090586	0.130147	11379.112305
8762.770974	0.090659	0.130147	11474.395508
8762.771993	0.090498	0.130147	11566.613281
8763.827784	1.332803	0.112217	746.369568
8763.828754	1.719130	0.112217	2413.925293
8763.829633	1.686453	0.112217	3896.317139
8763.830498	1.638263	0.112217	5313.414551
8763.831617	1.584741	0.112217	7086.740234
8763.832503	1.540540	0.112217	8451.658203
8763.833371	1.499458	0.112217	9753.187500
8763.834380	0.866708	0.112217	10627.695312
8763.835380	0.094490	0.112217	10722.185547
8763.836274	0.090593	0.112217	10803.175781
8763.837138	0.090707	0.112217	10881.546875
8763.838228	0.090659	0.112217	10980.365234
8763.839142	0.090553	0.112217	11063.130859
8763.840017	0.090582	0.112217	11142.390625
8763.840998	0.090648	0.112217	11231.316406
8763.841992	0.090535	0.112217	11321.307617
8763.842880	0.090590	0.112217	11401.750977
8763.843740	0.090634	0.112217	11479.696289
8764.793267	1.205698	0.128903	506.393280
8764.794383	1.717339	0.128903	2422.943604
8764.795356	1.681428	0.128903	4058.973145
8764.796229	1.635597	0.128903	5486.849609
8764.797292	1.581764	0.128903	7168.264648
8764.798316	1.532150	0.128903	8737.185547
8764.799215	1.489394	0.128903	10076.151367
8764.800155	0.711035	0.128903	10744.524414
8764.801217	0.091666	0.128903	10841.874023
8764.802149	0.090615	0.128903	10926.327148
8764.803008	0.090641	0.128903	11004.187500
8764.804071	0.090692	0.128903	11100.592773
8764.805097	0.090597	0.128903	11193.544922
8764.805976	0.090608	0.128903	11273.189453
8764.806933	0.090630	0.128903	11359.921875
8764.807987	0.090623	0.128903	11455.438477
8764.808905	0.090659	0.128903	11538.664062
8764.809765	0.090593	0.128903	11616.574219
8765.865412	1.200498	0.100277	522.216614
8765.866277	1.713171	0.100277	2004.109863
8765.867358	1.688232	0.100277	3829.089111
8765.868356	1.635905	0.100277	5461.721680
8765.869245	1.590234	0.100277	6875.439941
8765.870237	1.542839	0.100277	8405.936523
8765.871280	1.492764	0.100277	9962.888672
8765.872198	0.801885	0.100277	10699.018555
8765.873054	0.097928	0.100277	10782.845703
8765.874148	0.090630	0.100277	10881.995117
8765.875137	0.090542	0.100277	10971.541016
8765.876009	0.090604	0.100277	11050.547852
8765.876998	0.090696	0.100277	11140.246094
8765.878068	0.090626	0.100277	11237.215820
8765.878955	0.090623	0.100277	11317.597656
8765.879818	0.090590	0.100277	11395.776367
8765.880926	0.090656	0.100277	11496.222656
8765.881895	0.090590	0.100277	11584.003906
8766.830102	1.260154	0.131074	652.759644
8766.831176	1.717185	0.131074	2497.016357
8766.832102	1.680699	0.131074	4053.344238
8766.832970	1.633806	0.131074	5471.487793
8766.834063	1.579153	0.131074	7197.501953
8766.835060	1.530590	0.131074	8723.500000
8766.835965	1.488355	0.131074	10070.460937
8766.836960	0.591804	0.131074	10659.306641
8766.838007	0.090912	0.131074	10754.491211
8766.838899	0.090568	0.131074	10835.277344
8766.839762	0.090597	0.131074	10913.462891
8766.840852	0.090725	0.131074	11012.353516
8766.841811	0.090549	0.131074	11099.190430
8766.842676	0.090604	0.131074	11177.563477
8766.843741	0.090791	0.131074	11274.255859
8766.844760	0.090696	0.131074	11366.674805
8766.845639	0.090597	0.131074	11446.309570
8766.846559	0.090667	0.131074	11529.722656
8767.903251	1.249069	0.095741	640.772217
8767.904322	1.717178	0.095741	2479.869629
8767.905260	1.680718	0.095741	4056.382812
8767.906126	1.634216	0.095741	5471.614258
8767.907212	1.579823	0.095741	7187.301758
8767.908222	1.530963	0.095741	8733.574219
8767.909115	1.488790	0.095741	10063.064453
8767.910100	0.624503	0.095741	10678.200195
8767.911144	0.091194	0.095741	10773.406250
8767.912045	0.090546	0.095741	10854.988281
8767.912905	0.090637	0.095741	10932.936523
8767.913998	0.090696	0.095741	11032.067383
8767.914994	0.090546	0.095741	11122.250977
8767.915871	0.090542	0.095741	11201.656250
8767.916875	0.090736	0.095741	11292.754883
8767.917932	0.090619	0.095741	11388.539062
8767.918811	0.090553	0.095741	11468.134766
8767.919684	0.090703	0.095741	11547.318359
8768.869926	1.273246	0.124189	677.366760
8768.870978	1.717496	0.124189	2484.172852
8768.871897	1.681384	0.124189	4029.364990
8768.872767	1.633923	0.124189	5450.878418
8768.873863	1.579980	0.124189	7182.537109
8768.874868	1.531066	0.124189	8721.257812
8768.875767	1.488988	0.124189	10059.858398
8768.876766	0.597404	0.124189	10656.664062
8768.877822	0.091091	0.124189	10752.856445
8768.878711	0.090619	0.124189	10833.416992
8768.879577	0.090652	0.124189	10911.921875
8768.880696	0.090707	0.124189	11013.422852
8768.881655	0.090553	0.124189	11100.262695
8768.882519	0.090590	0.124189	11178.532227
8768.883560	0.090652	0.124189	11272.900391
8768.884593	0.090601	0.124189	11366.491211
8768.885475	0.090648	0.124189	11446.443359
8768.886401	0.090648	0.124189	11530.383789
8769.936825	1.204098	0.097599	510.537506
8769.937898	1.718459	0.097599	2354.444580
8769.938800	1.686932	0.097599	3876.057617
8769.939672	1.641193	0.097599	5307.177734
8769.940661	1.591879	0.097599	6881.545898
8769.941629	1.543488	0.097599	8375.641602
8769.942555	1.499696	0.097599	9764.360352
8769.943427	1.078136	0.097599	10704.495117
8769.944477	0.104352	0.097599	10814.064453
8769.945357	0.090615	0.097599	10893.805664
8769.946220	0.090579	0.097599	10971.974609
8769.947128	0.090626	0.097599	11054.263672
8769.948140	0.090608	0.097599	11145.958984
8769.949044	0.090564	0.097599	11227.829102
8769.949936	0.090634	0.097599	11308.673828
8769.950943	0.090619	0.097599	11399.926758
8769.951866	0.090593	0.097599	11483.543945
8769.952796	0.090597	0.097599	11567.798828
8770.912699	1.187823	0.118203	498.885834
8770.913698	1.714303	0.118203	2211.474365
8770.914673	1.685966	0.118203	3855.291016
8770.915603	1.638106	0.118203	5378.729004
8770.916473	1.591304	0.118203	6763.163086
8770.917581	1.540085	0.118203	8469.578125
8770.918496	1.496367	0.118203	9838.753906
8770.919366	1.000276	0.118203	10708.994141
8770.920452	0.097225	0.118203	10814.581055
8770.921419	0.090582	0.118203	10902.173828
8770.922294	0.090549	0.118203	10981.404297
8770.923175	0.090593	0.118203	11061.216797
8770.924281	0.090623	0.118203	11161.445312
8770.925159	0.090505	0.118203	11240.909180
8770.926018	0.090586	0.118203	11318.722656
8770.927073	0.090681	0.118203	11414.391602
8770.928033	0.090579	0.118203	11501.346680
8770.928916	0.090538	0.118203	11581.291992
8771.970592	1.299979	0.106219	682.489075
8771.971527	1.718903	0.106219	2289.663086
8771.972394	1.689404	0.106219	3754.376465
8771.973481	1.633674	0.106219	5530.180664
8771.974484	1.582364	0.106219	7117.291992
8771.975379	1.539031	0.106219	8494.724609
8771.976380	1.492511	0.106219	9988.728516
8771.977438	0.603325	0.106219	10627.046875
8771.978334	0.091970	0.106219	10709.452148
8771.979191	0.090597	0.106219	10787.093750
8771.980283	0.090699	0.106219	10886.137695
8771.981242	0.090571	0.106219	10972.995117
8771.982108	0.090564	0.106219	11051.423828
8771.983126	0.090630	0.106219	11143.684570
8771.984180	0.090608	0.106219	11239.185547
8771.985056	0.090667	0.106219	11318.609375
8771.985924	0.090571	0.106219	11397.225586
8771.987008	0.090674	0.106219	11495.515625
8772.954568	1.195239	0.118884	525.905273
8772.955438	1.713472	0.118884	2016.625610
8772.956479	1.689628	0.118884	3775.528076
8772.957521	1.635718	0.118884	5479.945801
8772.958396	1.590037	0.118884	6871.228027
8772.959337	1.543773	0.118884	8323.918945
8772.960421	1.492581	0.118884	9941.875977
8772.961370	0.762429	0.118884	10665.420898
8772.962241	0.096050	0.118884	10749.080078
8772.963277	0.090677	0.118884	10843.021484
8772.964296	0.090608	0.118884	10935.350586
8772.965188	0.090575	0.118884	11016.143555
8772.966151	0.090736	0.118884	11103.522461
8772.967210	0.090696	0.118884	11199.569336
8772.968138	0.090623	0.118884	11283.666992
8772.969005	0.090652	0.118884	11362.261719
8772.970109	0.090751	0.118884	11462.450195
8772.971099	0.090615	0.118884	11552.159180
8774.002102	1.191540	0.115432	500.446991
8774.003153	1.716152	0.115432	2304.123047
8774.004180	1.681465	0.115432	4030.987305
8774.005074	1.634469	0.115432	5492.202637
8774.006037	1.586092	0.115432	7019.609863
8774.007096	1.534640	0.115432	8644.793945
8774.008024	1.490453	0.115432	10027.934570
8774.008893	0.795139	0.115432	10718.910156
8774.009989	0.092362	0.115432	10820.138672
8774.010974	0.090560	0.115432	10909.340820
8774.011863	0.090659	0.115432	10989.936523
8774.012861	0.090597	0.115432	11080.352539
8774.013912	0.090692	0.115432	11175.669922
8774.014808	0.090659	0.115432	11256.900391
8774.015669	0.090619	0.115432	11334.922852
8774.016778	0.090696	0.115432	11435.504883
8774.017734	0.090604	0.115432	11522.122070
8774.018590	0.090608	0.115432	11599.682617
8774.997483	1.250977	0.124991	571.696289
8774.998368	1.715347	0.124991	2089.778076
8774.999245	1.695597	0.124991	3576.816406
8775.000251	1.644104	0.124991	5230.785156
8775.001187	1.594984	0.124991	6723.690430
8775.002117	1.549548	0.124991	8164.770508
8775.002983	1.507408	0.124991	9470.186523
8775.004004	1.110136	0.124991	10603.634766
8775.004906	0.124310	0.124991	10715.762695
8775.005780	0.090461	0.124991	10794.826172
8775.006718	0.090659	0.124991	10879.864258
8775.007688	0.090590	0.124991	10967.736328
8775.008604	0.090509	0.124991	11050.642578
8775.009470	0.090564	0.124991	11129.071289
8775.010557	0.090564	0.124991	11227.514648
8775.011458	0.090553	0.124991	11309.102539
8775.012330	0.090553	0.124991	11388.064453
8775.013189	0.090645	0.124991	11465.927734
8776.032783	1.240367	0.124504	631.346985
8776.033838	1.717830	0.124504	2443.657227
8776.034738	1.683296	0.124504	3958.623535
8776.035606	1.637589	0.124504	5380.050781
8776.036648	1.584305	0.124504	7030.896973
8776.037615	1.537654	0.124504	8517.808594
8776.038498	1.495829	0.124504	9838.625000
8776.039417	0.896814	0.124504	10662.796875
8776.040480	0.094764	0.124504	10763.531250
8776.041355	0.090538	0.124504	10842.751953
8776.042215	0.090590	0.124504	10920.659180
8776.043247	0.090721	0.124504	11014.284180
8776.044212	0.090531	0.124504	11101.646484
8776.045079	0.090564	0.124504	11180.165039
8776.045938	0.090648	0.124504	11258.032227
8776.047043	0.090590	0.124504	11358.133789
8776.047951	0.090516	0.124504	11440.322266
8776.048832	0.090546	0.124504	11520.092773
8777.039408	1.305450	0.122030	690.583252
8777.040452	1.717899	0.122030	2484.070068
8777.041349	1.682897	0.122030	3993.628418
8777.042301	1.633678	0.122030	5548.889648
8777.043386	1.578197	0.122030	7261.233398
8777.044332	1.532384	0.122030	8710.869141
8777.045199	1.490453	0.122030	10003.091797
8777.046284	0.549741	0.122030	10599.560547
8777.047278	0.090809	0.122030	10689.825195
8777.048165	0.090579	0.122030	10770.167969
8777.049148	0.090645	0.122030	10859.271484
8777.050189	0.090736	0.122030	10953.727539
8777.051093	0.090579	0.122030	11035.610352
8777.051949	0.090626	0.122030	11113.186523
8777.053033	0.090630	0.122030	11211.429687
8777.054030	0.090619	0.122030	11301.776367
8777.054904	0.090553	0.122030	11380.919922
8777.055895	0.090729	0.122030	11470.832031
8778.070492	1.235068	0.122872	561.956116
8778.071371	1.715193	0.122872	2069.610596
8778.072366	1.690671	0.122872	3751.828613
8778.073436	1.634564	0.122872	5500.812500
8778.074349	1.587642	0.122872	6950.329102
8778.075217	1.543777	0.122872	8290.327148
8778.076309	1.493481	0.122872	9921.208984
8778.077300	0.724735	0.122872	10639.421875
8778.078198	0.094222	0.122872	10724.033203
8778.079192	0.090575	0.122872	10814.064453
8778.080237	0.090593	0.122872	10908.734375
8778.081117	0.090604	0.122872	10988.465820
8778.081995	0.090663	0.122872	11068.067383
8778.083093	0.090699	0.122872	11167.655273
8778.084055	0.090538	0.122872	11254.752930
8778.084915	0.090601	0.122872	11332.669922
8778.085957	0.090663	0.122872	11427.140625
8778.086980	0.090593	0.122872	11519.817383
8779.077079	1.232102	0.106412	556.910095
8779.077958	1.714871	0.106412	2064.281250
8779.078952	1.691104	0.106412	3745.238281
8779.080013	1.635286	0.106412	5480.276367
8779.080923	1.588550	0.106412	6925.856445
8779.081791	1.544326	0.106412	8266.331055
8779.082896	1.493899	0.106412	9917.089844
8779.083877	0.761957	0.106412	10664.569336
8779.084740	0.096002	0.106412	10747.418945
8779.085750	0.090656	0.106412	10838.981445
8779.086804	0.090612	0.106412	10934.486328
8779.087685	0.090608	0.106412	11014.311523
8779.088547	0.090743	0.106412	11092.532227
8779.089647	0.090685	0.106412	11192.285156
8779.090614	0.090538	0.106412	11279.835937
8779.091473	0.090619	0.106412	11357.677734
8779.092508	0.090725	0.106412	11451.578125
8779.093547	0.090659	0.106412	11545.773437
8780.113417	1.267148	0.114159	633.574219
8780.114296	1.717112	0.114159	2142.915527
8780.115213	1.690829	0.114159	3693.405518
8780.116298	1.635007	0.114159	5467.388672
8780.117256	1.586221	0.114159	6986.988281
8780.118129	1.543249	0.114159	8334.245117
8780.119171	1.494184	0.114159	9891.185547
8780.120202	0.694563	0.114159	10607.280273
8780.121090	0.093713	0.114159	10690.498047
8780.122044	0.090623	0.114159	10776.952148
8780.123097	0.090721	0.114159	10872.481445
8780.124025	0.090604	0.114159	10956.562500
8780.124887	0.090623	0.114159	11034.678711
8780.125946	0.090685	0.114159	11130.713867
8780.126942	0.090560	0.114159	11220.912109
8780.127824	0.090597	0.114159	11300.818359
8780.128810	0.090615	0.114159	11390.165039
8780.129848	0.090623	0.114159	11484.231445
8781.108764	1.278062	0.094795	670.982300
8781.109842	1.717408	0.094795	2522.348633
8781.110749	1.680809	0.094795	4046.842773
8781.111615	1.633539	0.094795	5461.487305
8781.112729	1.578757	0.094795	7220.222656
8781.113708	1.532215	0.094795	8720.261719
8781.114575	1.490570	0.094795	10012.585937
8781.115644	0.562980	0.094795	10614.411133
8781.116680	0.090824	0.094795	10708.504883
8781.117569	0.090568	0.094795	10789.019531
8781.118492	0.090645	0.094795	10872.684570
8781.119356	0.090542	0.094795	10950.913086
8781.120311	0.090542	0.094795	11037.380859
8781.121265	0.090601	0.094795	11123.813477
8781.122142	0.090604	0.094795	11203.273437
8781.123117	0.090648	0.094795	11291.655273
8781.124024	0.090667	0.094795	11373.889648
8781.124947	0.090538	0.094795	11457.456055
8782.155193	1.187018	0.120113	500.921509
8782.156172	1.712245	0.120113	2177.209229
8782.157118	1.689368	0.120113	3775.351074
8782.158034	1.641328	0.120113	5278.807617
8782.158917	1.595625	0.120113	6687.744629
8782.159948	1.545710	0.120113	8281.372070
8782.160851	1.502794	0.120113	9638.395508
8782.161728	1.171406	0.120113	10665.718750
8782.162692	0.139468	0.120113	10800.166016
8782.163675	0.090480	0.120113	10889.107422
8782.164600	0.090586	0.120113	10972.899414
8782.165465	0.090674	0.120113	11051.332031
8782.166520	0.090667	0.120113	11146.985352
8782.167397	0.090615	0.120113	11226.455078
8782.168260	0.090626	0.120113	11304.665039
8782.169141	0.090699	0.120113	11384.571289
8782.170180	0.090597	0.120113	11478.701172
8782.171079	0.090568	0.120113	11560.121094
8783.136325	1.328130	0.110916	746.408997
8783.137238	1.718481	0.110916	2315.382568
8783.138169	1.686530	0.110916	3885.541504
8783.139033	1.639211	0.110916	5301.820312
8783.140079	1.587664	0.110916	6962.516602
8783.140967	1.544048	0.110916	8333.630859
8783.141841	1.502805	0.110916	9647.083008
8783.142844	0.979468	0.110916	10629.489258
8783.143757	0.105645	0.110916	10725.942383
8783.144674	0.090494	0.110916	10808.925781
8783.145549	0.090630	0.110916	10888.226562
8783.146596	0.090634	0.110916	10983.120117
8783.147489	0.090659	0.110916	11064.079102
8783.148362	0.090619	0.110916	11143.189453
8783.149329	0.090685	0.110916	11230.881836
8783.150302	0.090645	0.110916	11319.079102
8783.151222	0.090553	0.110916	11402.387695
8783.152084	0.090615	0.110916	11480.498047
8784.200156	1.222526	0.111754	544.023865
8784.201027	1.714384	0.111754	2037.251953
8784.201887	1.697333	0.111754	3496.958008
8784.202924	1.643870	0.111754	5201.650879
8784.203831	1.597273	0.111754	6650.377441
8784.204707	1.553624	0.111754	8011.352539
8784.205588	1.510324	0.111754	9341.947266
8784.206633	1.196239	0.111754	10592.016602
8784.207532	0.139596	0.111754	10717.513672
8784.208390	0.090575	0.111754	10795.226562
8784.209500	0.090608	0.111754	10895.801758
8784.210398	0.090571	0.111754	10977.134766
8784.211263	0.090535	0.111754	11055.447266
8784.212259	0.090674	0.111754	11145.758789
8784.213263	0.090557	0.111754	11236.677734
8784.214136	0.090549	0.111754	11315.727539
8784.214993	0.090637	0.111754	11393.403320
8784.216066	0.090615	0.111754	11490.633789
8785.169865	1.213187	0.113825	528.949646
8785.170742	1.714175	0.113825	2032.281006
8785.171606	1.695861	0.113825	3497.504639
8785.172716	1.640717	0.113825	5318.700195
8785.173629	1.593292	0.113825	6773.375977
8785.174505	1.550365	0.113825	8131.495605
8785.175518	1.503157	0.113825	9654.193359
8785.176521	0.993010	0.113825	10650.182617
8785.177393	0.109603	0.113825	10745.756836
8785.178259	0.090513	0.113825	10824.140625
8785.179338	0.090688	0.113825	10921.993164
8785.180253	0.090615	0.113825	11004.906250
8785.181128	0.090601	0.113825	11084.181641
8785.182097	0.090634	0.113825	11172.005859
8785.183103	0.090590	0.113825	11263.138672
8785.183996	0.090575	0.113825	11344.022461
8785.184854	0.090597	0.113825	11421.754883
8785.185924	0.090659	0.113825	11518.759766
8786.239950	1.208800	0.095286	533.080811
8786.240814	1.713695	0.095286	2013.713379
8786.241867	1.689060	0.095286	3792.293701
8786.242903	1.635051	0.095286	5486.207031
8786.243789	1.589590	0.095286	6894.583496
8786.244762	1.542770	0.095286	8395.698242
8786.245825	1.492101	0.095286	9981.801758
8786.246750	0.775217	0.095286	10698.877930
8786.247606	0.096683	0.095286	10781.638672
8786.248649	0.090718	0.095286	10876.256836
8786.249658	0.090641	0.095286	10967.713867
8786.250542	0.090601	0.095286	11047.804687
8786.251522	0.090718	0.095286	11136.708008
8786.252572	0.090612	0.095286	11231.850586
8786.253483	0.090538	0.095286	11314.331055
8786.254342	0.090634	0.095286	11392.185547
8786.255420	0.090699	0.095286	11489.959961
8786.256410	0.090612	0.095286	11579.665039
8787.206594	1.197078	0.114747	518.334595
8787.207461	1.713043	0.114747	2003.543091
8787.208526	1.688518	0.114747	3801.814941
8787.209542	1.635212	0.114747	5463.190430
8787.210441	1.589440	0.114747	6892.096680
8787.211421	1.542198	0.114747	8403.451172
8787.212475	1.492178	0.114747	9976.207031
8787.213394	0.781816	0.114747	10694.696289
8787.214252	0.097189	0.114747	10778.083984
8787.215347	0.090597	0.114747	10877.288086
8787.216343	0.090568	0.114747	10967.493164
8787.217220	0.090579	0.114747	11046.930664
8787.218228	0.090652	0.114747	11138.307617
8787.219280	0.090645	0.114747	11233.666016
8787.220174	0.090685	0.114747	11314.738281
8787.221030	0.090571	0.114747	11392.267578
8787.222117	0.090758	0.114747	11490.921875
8787.223092	0.090597	0.114747	11579.253906
8788.274732	1.290015	0.090476	696.607910
8788.275785	1.717617	0.090476	2505.258789
8788.276690	1.681622	0.090476	4027.126953
8788.277554	1.634473	0.090476	5439.311523
8788.278663	1.580120	0.090476	7191.664062
8788.279630	1.533135	0.090476	8674.205078
8788.280498	1.492017	0.090476	9969.275391
8788.281536	0.654346	0.090476	10648.486328
8788.282573	0.091443	0.090476	10743.312500
8788.283446	0.090560	0.090476	10822.372070
8788.284322	0.090652	0.090476	10901.783203
8788.285433	0.090659	0.090476	11002.505859
8788.286383	0.090601	0.090476	11088.576172
8788.287247	0.090601	0.090476	11166.855469
8788.288253	0.090641	0.090476	11258.040039
8788.289288	0.090590	0.090476	11351.799805
8788.290177	0.090608	0.090476	11432.350586
8788.291085	0.090637	0.090476	11514.649414
8789.250492	1.189761	0.105784	502.079010
8789.251502	1.715490	0.105784	2234.723389
8789.252547	1.682926	0.105784	3993.380859
8789.253441	1.635707	0.105784	5455.702637
8789.254380	1.587634	0.105784	6946.491211
8789.255461	1.535350	0.105784	8606.205078
8789.256408	1.490552	0.105784	10017.757812
8789.257282	0.803123	0.105784	10719.686523
8789.258341	0.093054	0.105784	10818.230469
8789.259339	0.090582	0.105784	10908.631836
8789.260225	0.090582	0.105784	10988.887695
8789.261201	0.090634	0.105784	11077.345703
8789.262252	0.090674	0.105784	11172.643555
8789.263165	0.090582	0.105784	11255.344727
8789.264025	0.090681	0.105784	11333.330078
8789.265109	0.090696	0.105784	11431.644531
8789.266111	0.090626	0.105784	11522.452148
8789.266984	0.090564	0.105784	11601.514648
8790.304262	1.230571	0.106404	616.516235
8790.305322	1.716716	0.106404	2436.235352
8790.306264	1.681509	0.106404	4020.216797
8790.307130	1.635454	0.106404	5436.520020
8790.308189	1.582449	0.106404	7112.333008
8790.309216	1.532842	0.106404	8686.561523
8790.310098	1.490504	0.106404	10001.186523
8790.311080	0.712511	0.106404	10700.872070
8790.312129	0.091681	0.106404	10797.044922
8790.313035	0.090546	0.106404	10879.079102
8790.313896	0.090634	0.106404	10957.114258
8790.314953	0.090656	0.106404	11052.937500
8790.315953	0.090601	0.106404	11143.538086
8790.316837	0.090571	0.106404	11223.603516
8790.317813	0.090703	0.106404	11312.129883
8790.318864	0.090560	0.106404	11407.308594
8790.319770	0.090637	0.106404	11489.425781
8790.320632	0.090575	0.106404	11567.500977
8791.294516	1.322314	0.104233	724.628296
8791.295596	1.717493	0.104233	2579.520508
8791.296474	1.680886	0.104233	4055.338379
8791.297355	1.632543	0.104233	5493.608398
8791.298488	1.577157	0.104233	7280.527344
8791.299437	1.531666	0.104233	8734.078125
8791.300310	1.489988	0.104233	10034.837891
8791.301343	0.588446	0.104233	10642.703125
8791.302380	0.090857	0.104233	10736.921875
8791.303267	0.090637	0.104233	10817.317383
8791.304194	0.090674	0.104233	10901.372070
8791.305255	0.090685	0.104233	10997.588867
8791.306198	0.090597	0.104233	11083.021484
8791.307061	0.090637	0.104233	11161.241211
8791.308119	0.090685	0.104233	11257.185547
8791.309120	0.090601	0.104233	11347.876953
8791.310002	0.090688	0.104233	11427.864258
8791.310972	0.090652	0.104233	11515.796875
8792.334883	1.288704	0.116141	661.104919
8792.335889	1.718379	0.116141	2389.794189
8792.336766	1.686482	0.116141	3868.838867
8792.337788	1.633707	0.116141	5538.487793
8792.338847	1.580314	0.116141	7212.040039
8792.339729	1.536445	0.116141	8567.184570
8792.340631	1.492910	0.116141	9913.789062
8792.341740	0.612169	0.116141	10592.684570
8792.342686	0.091498	0.116141	10679.241211
8792.343544	0.090564	0.116141	10756.945312
8792.344568	0.090688	0.116141	10849.810547
8792.345599	0.090612	0.116141	10943.231445
8792.346483	0.090557	0.116141	11023.283203
8792.347417	0.090685	0.116141	11107.982422
8792.348486	0.090619	0.116141	11204.854492
8792.349432	0.090593	0.116141	11290.555664
8792.350301	0.090575	0.116141	11369.265625
8792.351369	0.090743	0.116141	11466.179687
8793.335373	1.323098	0.112765	739.611877
8793.336247	1.717969	0.112765	2241.116455
8793.337122	1.691246	0.112765	3720.957031
8793.337999	1.642764	0.112765	5161.660645
8793.339064	1.590253	0.112765	6855.279785
8793.339963	1.546362	0.112765	8245.458984
8793.340841	1.504933	0.112765	9566.790039
8793.341850	1.043613	0.112765	10619.795898
8793.342780	0.109124	0.112765	10721.281250
8793.343704	0.090612	0.112765	10805.005859
8793.344567	0.090582	0.112765	10883.178711
8793.345606	0.090560	0.112765	10977.270508
8793.346486	0.090527	0.112765	11056.934570
8793.347357	0.090615	0.112765	11135.860352
8793.348310	0.090535	0.112765	11222.139648
8793.349257	0.090586	0.112765	11307.924805
8793.350181	0.090601	0.112765	11391.639648
8793.351057	0.090542	0.112765	11470.954102
