time (s)	coil I (A)	last det (V)	int current (uC)
10901.257762	1.285060	0.283429	646.385071
10901.258663	1.717903	0.283429	2194.215576
10901.259529	1.691301	0.283429	3658.882568
10901.260646	1.634843	0.283429	5485.001953
10901.261620	1.584664	0.283429	7028.464844
10901.262504	1.542411	0.283429	8391.956055
10901.263513	1.494972	0.283429	9900.382812
10901.264572	1.447929	0.283429	11433.739258
10901.265473	1.409257	0.283429	12703.479492
10901.266363	1.371105	0.283429	13923.762695
10901.267466	1.328258	0.283429	15388.831055
10901.268427	1.290875	0.283429	16629.361328
10901.269295	1.258605	0.283429	17721.830078
10901.270334	1.221643	0.283429	18991.117187
10901.271369	0.779048	0.283429	19797.431641
10901.272259	0.099734	0.283429	19886.195312
10901.273210	0.090743	0.283429	19972.492187
10901.274259	0.090707	0.283429	20067.644531
10901.275190	0.090685	0.283429	20152.072266
10901.276048	0.090641	0.283429	20229.841797
10901.277121	0.090747	0.283429	20327.212891
10901.278140	0.090692	0.283429	20419.628906
10901.279015	0.090663	0.283429	20498.958984
10901.279982	0.090721	0.283429	20586.687500
10901.281027	0.090743	0.283429	20681.513672
10902.231499	1.217747	0.276855	532.155273
10902.232380	1.713798	0.276855	2042.010986
10902.233404	1.690697	0.276855	3773.284668
10902.234468	1.636044	0.276855	5514.035156
10902.235354	1.589670	0.276855	6922.483398
10902.236239	1.544399	0.276855	8289.277344
10902.237360	1.493723	0.276855	9963.741211
10902.238322	1.450594	0.276855	11359.212891
10902.239186	1.413212	0.276855	12580.227539
10902.240213	1.370314	0.276855	13987.540039
10902.241253	1.329298	0.276855	15370.009766
10902.242150	1.294014	0.276855	16530.740234
10902.243100	1.259227	0.276855	17727.005859
10902.244157	1.220951	0.276855	19017.550781
10902.245096	0.873032	0.276855	19837.328125
10902.245961	0.110233	0.276855	19932.679687
10902.247027	0.090688	0.276855	20029.353516
10902.248038	0.090710	0.276855	20121.062500
10902.248931	0.090692	0.276855	20202.050781
10902.249906	0.090787	0.276855	20290.568359
10902.250960	0.090795	0.276855	20386.265625
10902.251879	0.090634	0.276855	20469.558594
10902.252739	0.090751	0.276855	20547.603516
10902.253821	0.090813	0.276855	20645.863281
10902.254805	0.090718	0.276855	20735.128906
10903.297552	1.274901	0.303031	650.199524
10903.298459	1.717214	0.303031	2207.712891
10903.299322	1.691418	0.303031	3667.406982
10903.300431	1.635945	0.303031	5481.669922
10903.301428	1.585019	0.303031	7061.934570
10903.302303	1.541960	0.303031	8411.150391
10903.303302	1.494792	0.303031	9904.448242
10903.304372	1.447390	0.303031	11453.155273
10903.305272	1.408953	0.303031	12721.212891
10903.306163	1.370537	0.303031	13942.361328
10903.307279	1.327079	0.303031	15423.381836
10903.308230	1.290436	0.303031	16650.585937
10903.309104	1.257854	0.303031	17749.951172
10903.310138	1.221039	0.303031	19012.505859
10903.311174	0.754200	0.303031	19793.857422
10903.312060	0.098123	0.303031	19880.794922
10903.312992	0.090677	0.303031	19965.306641
10903.314053	0.090754	0.303031	20061.597656
10903.314995	0.090707	0.303031	20147.042969
10903.315853	0.090714	0.303031	20224.875000
10903.316914	0.090751	0.303031	20321.162109
10903.317915	0.090626	0.303031	20411.878906
10903.318799	0.090667	0.303031	20492.027344
10903.319769	0.090798	0.303031	20580.101562
10903.320803	0.090751	0.303031	20673.937500
10904.273413	1.263256	0.289596	630.364563
10904.274431	1.718086	0.289596	2379.375977
10904.275326	1.686533	0.289596	3888.823242
10904.276292	1.637010	0.289596	5470.175293
10904.277342	1.582921	0.289596	7132.242676
10904.278275	1.537551	0.289596	8566.778320
10904.279140	1.495375	0.289596	9860.277344
10904.280227	1.447896	0.289596	11434.139648
10904.281233	1.405232	0.289596	12847.802734
10904.282117	1.368706	0.289596	14057.738281
10904.283112	1.329291	0.289596	15380.382812
10904.284175	1.288619	0.289596	16750.185547
10904.285073	1.254635	0.289596	17876.847656
10904.285935	1.222540	0.289596	18930.677734
10904.287046	0.750604	0.289596	19764.599609
10904.288011	0.095321	0.289596	19856.583984
10904.288870	0.090710	0.289596	19934.503906
10904.289866	0.090784	0.289596	20024.923828
10904.290917	0.090780	0.289596	20120.333984
10904.291802	0.090699	0.289596	20200.603516
10904.292672	0.090685	0.289596	20279.500000
10904.293782	0.090740	0.289596	20380.220703
10904.294741	0.090645	0.289596	20467.148437
10904.295607	0.090692	0.289596	20545.687500
10904.296601	0.090868	0.289596	20636.009766
10905.325005	1.216970	0.334226	534.249939
10905.325868	1.711728	0.334226	2011.471680
10905.326982	1.686555	0.334226	3890.293945
10905.327944	1.636077	0.334226	5464.199707
10905.328809	1.591421	0.334226	6840.778809
10905.329870	1.540712	0.334226	8475.473633
10905.330909	1.491442	0.334226	10025.081055
10905.331786	1.451169	0.334226	11297.756836
10905.332717	1.411729	0.334226	12612.076172
10905.333802	1.366439	0.334226	14094.663086
10905.334757	1.328807	0.334226	15363.673828
10905.335632	1.294080	0.334226	16495.994141
10905.336679	1.255627	0.334226	17810.636719
10905.337713	1.218893	0.334226	19070.972656
10905.338608	0.863936	0.334226	19844.195312
10905.339579	0.107772	0.334226	19948.841797
10905.340642	0.090729	0.334226	20045.287109
10905.341554	0.090677	0.334226	20127.984375
10905.342414	0.090736	0.334226	20206.017578
10905.343489	0.090806	0.334226	20303.632812
10905.344491	0.090688	0.334226	20394.501953
10905.345386	0.090681	0.334226	20475.662109
10905.346373	0.090809	0.334226	20565.291016
10905.347428	0.090747	0.334226	20661.029297
10905.348325	0.090663	0.334226	20742.353516
10906.322359	1.198788	0.303353	505.888458
10906.323450	1.715881	0.303353	2377.915039
10906.324443	1.681384	0.303353	4047.529785
10906.325325	1.635150	0.303353	5489.732422
10906.326340	1.583518	0.303353	7097.002930
10906.327422	1.532468	0.303353	8755.133789
10906.328301	1.489633	0.303353	10064.520508
10906.329190	1.448551	0.303353	11352.282227
10906.330297	1.402863	0.303353	12905.250977
10906.331254	1.363718	0.303353	14210.329102
10906.332123	1.328884	0.303353	15365.129883
10906.333154	1.288945	0.303353	16694.033203
10906.334184	1.251156	0.303353	17982.724609
10906.335079	1.219120	0.303353	19073.835937
10906.336026	0.787804	0.303353	19819.886719
10906.337078	0.095050	0.303353	19919.878906
10906.338015	0.090626	0.303353	20004.794922
10906.338875	0.090670	0.303353	20082.771484
10906.339922	0.090758	0.303353	20177.794922
10906.340937	0.090685	0.303353	20269.839844
10906.341828	0.090710	0.303353	20350.662109
10906.342811	0.090740	0.303353	20439.859375
10906.343854	0.090776	0.303353	20534.539062
10906.344765	0.090648	0.303353	20617.119141
10906.345623	0.090747	0.303353	20694.980469
10907.355580	1.201139	0.319680	509.282928
10907.356661	1.715900	0.319680	2364.170410
10907.357652	1.681395	0.319680	4030.433105
10907.358553	1.634861	0.319680	5503.442383
10907.359560	1.584053	0.319680	7098.583496
10907.360616	1.533475	0.319680	8717.933594
10907.361505	1.490596	0.319680	10043.073242
10907.362387	1.449723	0.319680	11321.728516
10907.363492	1.404639	0.319680	12873.854492
10907.364454	1.364725	0.319680	14186.720703
10907.365324	1.329668	0.319680	15343.532227
10907.366382	1.289158	0.319680	16707.460937
10907.367409	1.251229	0.319680	17992.472656
10907.368301	1.219105	0.319680	19079.914062
10907.369240	0.774921	0.319680	19807.564453
10907.370325	0.094819	0.319680	19910.443359
10907.371243	0.090688	0.319680	19993.695312
10907.372110	0.090663	0.319680	20072.300781
10907.373152	0.090813	0.319680	20166.927734
10907.374165	0.090637	0.319680	20258.744141
10907.375050	0.090648	0.319680	20338.968750
10907.376018	0.090732	0.319680	20426.796875
10907.377064	0.090765	0.319680	20521.738281
10907.377991	0.090652	0.319680	20605.773437
10907.378860	0.090718	0.319680	20684.607422
10908.363284	1.277168	0.341711	639.861206
10908.364254	1.717786	0.341711	2306.113281
10908.365128	1.688979	0.341711	3782.281250
10908.366144	1.636604	0.341711	5445.070801
10908.367198	1.583401	0.341711	7113.975586
10908.368081	1.539500	0.341711	8473.353516
10908.368965	1.496257	0.341711	9796.044922
10908.370068	1.448460	0.341711	11393.695312
10908.371022	1.408063	0.341711	12736.987305
10908.371883	1.372013	0.341711	13918.291016
10908.372920	1.330433	0.341711	15297.950195
10908.373970	1.290026	0.341711	16652.476562
10908.374855	1.256836	0.341711	17764.777344
10908.375805	1.223218	0.341711	18926.833984
10908.376861	0.787423	0.341711	19758.353516
10908.377800	0.098101	0.341711	19850.470703
10908.378669	0.090579	0.341711	19929.183594
10908.379742	0.090732	0.341711	20026.539062
10908.380748	0.090604	0.341711	20117.687500
10908.381636	0.090623	0.341711	20198.160156
10908.382599	0.090780	0.341711	20285.582031
10908.383652	0.090699	0.341711	20381.087891
10908.384569	0.090615	0.341711	20464.181641
10908.385432	0.090659	0.341711	20542.419922
10908.386502	0.090740	0.341711	20639.511719
10909.396500	1.276802	0.368447	647.338440
10909.397494	1.717482	0.368447	2354.515381
10909.398388	1.686211	0.368447	3861.988037
10909.399373	1.635253	0.368447	5472.711914
10909.400433	1.581918	0.368447	7149.544434
10909.401331	1.537485	0.368447	8530.206055
10909.402248	1.493866	0.368447	9900.081055
10909.403346	1.445365	0.368447	11487.091797
10909.404296	1.405327	0.368447	12822.152344
10909.405162	1.368922	0.368447	14007.638672
10909.406196	1.327950	0.368447	15380.739258
10909.407222	1.288667	0.368447	16702.912109
10909.408103	1.255792	0.368447	17809.265625
10909.409050	1.222258	0.368447	18966.744141
10909.410109	0.762444	0.368447	19774.171875
10909.411030	0.097581	0.368447	19864.042969
10909.411890	0.090608	0.368447	19941.964844
10909.412951	0.090751	0.368447	20038.251953
10909.413965	0.090615	0.368447	20130.136719
10909.414831	0.090630	0.368447	20208.623047
10909.415797	0.090663	0.368447	20296.203125
10909.416846	0.090740	0.368447	20391.388672
10909.417765	0.090612	0.368447	20474.660156
10909.418626	0.090641	0.368447	20552.701172
10909.419693	0.090758	0.368447	20649.539062
10910.393858	1.270715	0.334734	608.672668
10910.394741	1.715266	0.334734	2123.252686
10910.395732	1.689459	0.334734	3797.506836
10910.396786	1.634037	0.334734	5519.781738
10910.397705	1.586741	0.334734	6977.996094
10910.398572	1.543477	0.334734	8316.190430
10910.399662	1.493137	0.334734	9943.709961
10910.400666	1.448090	0.334734	11397.591797
10910.401547	1.410689	0.334734	12640.408203
10910.402547	1.369969	0.334734	14010.377930
10910.403613	1.327595	0.334734	15425.594727
10910.404493	1.292322	0.334734	16562.837891
10910.405364	1.258337	0.334734	17658.849609
10910.406461	1.220764	0.334734	18998.027344
10910.407434	0.838868	0.334734	19814.246094
10910.408301	0.105989	0.334734	19906.138672
10910.409344	0.090674	0.334734	20000.710937
10910.410376	0.090670	0.334734	20094.283203
10910.411262	0.090641	0.334734	20174.591797
10910.412173	0.090802	0.334734	20257.312500
10910.413241	0.090740	0.334734	20354.222656
10910.414192	0.090670	0.334734	20440.449219
10910.415052	0.090641	0.334734	20518.400391
10910.416112	0.090780	0.334734	20614.626953
10910.417132	0.090743	0.334734	20707.185547
10911.438262	1.182817	0.391384	499.148926
10911.439301	1.714332	0.391384	2280.340088
10911.440344	1.681000	0.391384	4033.622803
10911.441246	1.633821	0.391384	5507.329102
10911.442206	1.585690	0.391384	7029.591309
10911.443260	1.533757	0.391384	8646.171875
10911.444191	1.489984	0.391384	10033.347656
10911.445064	1.450250	0.391384	11299.416016
10911.446146	1.405371	0.391384	12820.027344
10911.447154	1.363425	0.391384	14194.360352
10911.448052	1.327778	0.391384	15386.705078
10911.449021	1.290718	0.391384	16637.410156
10911.450083	1.251357	0.391384	17966.351562
10911.451000	1.218516	0.391384	19083.730469
10911.451869	0.833855	0.391384	19808.349609
10911.452969	0.096130	0.391384	19914.093750
10911.453951	0.090579	0.391384	20003.041016
10911.454834	0.090674	0.391384	20083.105469
10911.455826	0.090710	0.391384	20173.089844
10911.456878	0.090692	0.391384	20268.498047
10911.457752	0.090714	0.391384	20347.781250
10911.458614	0.090732	0.391384	20425.992187
10911.459711	0.090784	0.391384	20525.582031
10911.460667	0.090656	0.391384	20612.248047
10911.461523	0.090710	0.391384	20689.896484
10912.430533	1.211338	0.320328	525.720642
10912.431412	1.712534	0.320328	2031.038086
10912.432439	1.689514	0.320328	3766.169189
10912.433486	1.635465	0.320328	5478.500977
10912.434364	1.589960	0.320328	6874.485352
10912.435254	1.545157	0.320328	8249.675781
10912.436352	1.494913	0.320328	9891.090820
10912.437306	1.451587	0.320328	11275.904297
10912.438171	1.414647	0.320328	12499.574219
10912.439213	1.372277	0.320328	13929.486328
10912.440249	1.330602	0.320328	15307.990234
10912.441132	1.295742	0.320328	16452.130859
10912.442090	1.260260	0.320328	17659.460937
10912.443166	1.221720	0.320328	18974.031250
10912.444088	0.904578	0.320328	19808.052734
10912.444966	0.115360	0.320328	19909.339844
10912.446026	0.090645	0.320328	20005.423828
10912.447033	0.090641	0.320328	20096.699219
10912.447920	0.090608	0.320328	20177.068359
10912.448894	0.090791	0.320328	20265.498047
10912.449946	0.090707	0.320328	20360.921875
10912.450859	0.090674	0.320328	20443.707031
10912.451720	0.090685	0.320328	20521.787109
10912.452820	0.090747	0.320328	20621.609375
10912.453807	0.090641	0.320328	20711.072266
10913.481156	1.197177	0.387231	517.180298
10913.482147	1.711029	0.387231	2212.810059
10913.483218	1.682029	0.387231	4014.262695
10913.484119	1.634231	0.387231	5486.705078
10913.484979	1.588462	0.387231	6852.782227
10913.486068	1.537822	0.387231	8527.470703
10913.487058	1.490413	0.387231	10002.979492
10913.487941	1.450990	0.387231	11284.203125
10913.488952	1.408433	0.387231	12708.128906
10913.490013	1.365033	0.387231	14156.428711
10913.490896	1.329137	0.387231	15330.056641
10913.491797	1.292933	0.387231	16494.990234
10913.492905	1.253031	0.387231	17883.347656
10913.493869	1.219010	0.387231	19058.472656
10913.494749	0.882675	0.387231	19835.226562
10913.495771	0.100649	0.387231	19938.089844
10913.496797	0.090677	0.387231	20031.125000
10913.497695	0.090674	0.387231	20112.550781
10913.498646	0.090743	0.387231	20198.847656
10913.499709	0.090714	0.387231	20295.277344
10913.500639	0.090677	0.387231	20379.607422
10913.501498	0.090707	0.387231	20457.525391
10913.502562	0.090758	0.387231	20554.091797
10913.503563	0.090692	0.387231	20644.875000
10913.504443	0.090670	0.387231	20724.664062
10914.469438	1.334971	0.348607	730.228943
10914.470398	1.717463	0.348607	2378.993896
10914.471279	1.686171	0.348607	3864.510254
10914.472199	1.637410	0.348607	5370.927246
10914.473287	1.583697	0.348607	7093.990234
10914.474192	1.539283	0.348607	8487.041992
10914.475067	1.497480	0.348607	9797.336914
10914.476124	1.450389	0.348607	11330.398437
10914.477093	1.409421	0.348607	12696.127930
10914.477971	1.372595	0.348607	13901.266602
10914.478897	1.335513	0.348607	15137.951172
10914.479960	1.294706	0.348607	16514.222656
10914.480843	1.261542	0.348607	17628.164062
10914.481707	1.230004	0.348607	18690.886719
10914.482757	0.997148	0.348607	19737.892578
10914.483725	0.125365	0.348607	19859.246094
10914.484585	0.090604	0.348607	19937.166016
10914.485468	0.090696	0.348607	20017.250000
10914.486581	0.090729	0.348607	20118.230469
10914.487471	0.090604	0.348607	20198.869141
10914.488335	0.090630	0.348607	20277.173828
10914.489367	0.090776	0.348607	20370.855469
10914.490339	0.090681	0.348607	20458.998047
10914.491215	0.090634	0.348607	20538.392578
10914.492075	0.090670	0.348607	20616.369141
10915.520999	1.234706	0.395734	572.903503
10915.521888	1.713842	0.395734	2096.508545
10915.522876	1.689818	0.395734	3766.048828
10915.523808	1.640369	0.395734	5294.872070
10915.524735	1.593278	0.395734	6771.840332
10915.525599	1.549610	0.395734	8110.704102
10915.526635	1.501146	0.395734	9665.891602
10915.527537	1.460072	0.395734	10982.876953
10915.528415	1.422645	0.395734	12231.959961
10915.529380	1.383395	0.395734	13566.935547
10915.530337	1.343998	0.395734	14853.141602
10915.531221	1.308834	0.395734	16010.151367
10915.532150	1.273671	0.395734	17193.390625
10915.533210	1.235837	0.395734	18503.378906
10915.534096	1.204471	0.395734	19570.541016
10915.534966	0.383141	0.395734	19903.873047
10915.536018	0.090820	0.395734	19999.416016
10915.536969	0.090677	0.395734	20085.650391
10915.537839	0.090688	0.395734	20164.548828
10915.538731	0.090674	0.395734	20245.429687
10915.539836	0.090674	0.395734	20345.625000
10915.540718	0.090619	0.395734	20425.550781
10915.541579	0.090652	0.395734	20503.601562
10915.542602	0.090806	0.395734	20596.496094
10915.543574	0.090685	0.395734	20684.642578
10915.544447	0.090637	0.395734	20763.769531
10916.507077	1.205310	0.369804	521.899292
10916.507948	1.711571	0.369804	2012.677612
10916.508816	1.695982	0.369804	3484.789551
10916.509871	1.642760	0.369804	5217.901367
10916.510765	1.597192	0.369804	6645.791504
10916.511642	1.553500	0.369804	8008.210937
10916.512605	1.508833	0.369804	9461.216797
10916.513577	1.463580	0.369804	10883.816406
10916.514494	1.424249	0.369804	12189.853516
10916.515363	1.387647	0.369804	13395.718750
10916.516392	1.346770	0.369804	14781.544922
10916.517264	1.311365	0.369804	15925.054687
10916.518142	1.277963	0.369804	17047.105469
10916.519035	1.244264	0.369804	18158.232422
10916.520083	1.208145	0.369804	19424.367187
10916.520984	0.493279	0.369804	19868.810547
10916.521856	0.091923	0.369804	19948.966797
10916.522852	0.090751	0.369804	20039.355469
10916.523777	0.090656	0.369804	20123.210937
10916.524697	0.090677	0.369804	20206.634766
10916.525562	0.090729	0.369804	20285.115234
10916.526597	0.090714	0.369804	20379.003906
10916.527478	0.090685	0.369804	20458.896484
10916.528343	0.090685	0.369804	20537.337891
10916.529300	0.090743	0.369804	20624.179687
10916.530254	0.090670	0.369804	20710.679687
10917.558713	1.189728	0.427300	503.254852
10917.559759	1.715995	0.427300	2298.185303
10917.560659	1.687317	0.427300	3816.770508
10917.561536	1.641559	0.427300	5256.417480
10917.562511	1.592541	0.427300	6809.145508
10917.563490	1.544165	0.427300	8320.882812
10917.564414	1.500597	0.427300	9707.434570
10917.565286	1.460240	0.427300	10980.764648
10917.566325	1.417280	0.427300	12453.318359
10917.567201	1.379641	0.427300	13661.883789
10917.568080	1.343807	0.427300	14843.090820
10917.569005	1.307534	0.427300	16052.559570
10917.570005	1.269840	0.427300	17322.400391
10917.570923	1.236486	0.427300	18457.494141
10917.571815	1.205222	0.427300	19532.552734
10917.572825	0.335175	0.427300	19871.078125
10917.573745	0.090535	0.427300	19954.369141
10917.574669	0.090648	0.427300	20038.128906
10917.575530	0.090681	0.427300	20116.205078
10917.576558	0.090645	0.427300	20209.386719
10917.577442	0.090674	0.427300	20289.542969
10917.578305	0.090725	0.427300	20367.837891
10917.579286	0.090773	0.427300	20456.886719
10917.580226	0.090652	0.427300	20542.099609
10917.581143	0.090634	0.427300	20625.210937
10917.582015	0.090659	0.427300	20704.265625
10918.546906	1.228726	0.391255	549.240295
10918.547787	1.712915	0.391255	2058.318359
10918.548656	1.695564	0.391255	3531.763428
10918.549620	1.646063	0.391255	5118.568359
10918.550556	1.597441	0.391255	6613.773437
10918.551481	1.552233	0.391255	8049.588867
10918.552364	1.509997	0.391255	9382.916992
10918.553326	1.464950	0.391255	10792.199219
10918.554287	1.424418	0.391255	12161.064453
10918.555182	1.387401	0.391255	13402.789062
10918.556182	1.347693	0.391255	14750.482422
10918.557083	1.311295	0.391255	15931.958984
10918.558001	1.276567	0.391255	17103.847656
10918.558864	1.244517	0.391255	18177.865234
10918.559833	1.209782	0.391255	19350.144531
10918.560766	0.527366	0.391255	19842.175781
10918.561652	0.092175	0.391255	19923.843750
10918.562628	0.090736	0.391255	20012.402344
10918.563559	0.090696	0.391255	20096.839844
10918.564485	0.090641	0.391255	20180.773437
10918.565362	0.090714	0.391255	20260.330078
10918.566304	0.090692	0.391255	20345.761719
10918.567246	0.090601	0.391255	20431.107422
10918.568133	0.090688	0.391255	20511.548828
10918.569060	0.090732	0.391255	20595.658203
10918.570045	0.090626	0.391255	20684.925781
10919.594424	1.183550	0.457424	499.458008
10919.595285	1.709213	0.457424	1971.090088
10919.596368	1.687240	0.457424	3798.371094
10919.597263	1.640284	0.457424	5266.425781
10919.598142	1.595749	0.457424	6669.089844
10919.599164	1.546549	0.457424	8249.663086
10919.600093	1.501238	0.457424	9644.312500
10919.601008	1.460131	0.457424	10980.332031
10919.601873	1.421752	0.457424	12210.147461
10919.602930	1.379557	0.457424	13668.338867
10919.603809	1.343181	0.457424	14848.995117
10919.604691	1.308406	0.457424	16003.008789
10919.605661	1.272466	0.457424	17237.300781
10919.606605	1.237625	0.457424	18405.619141
10919.607526	1.205427	0.457424	19515.818359
10919.608411	0.410687	0.457424	19879.277344
10919.609448	0.090813	0.457424	19973.451172
10919.610347	0.090615	0.457424	20054.914062
10919.611218	0.090630	0.457424	20133.853516
10919.612124	0.090670	0.457424	20216.000000
10919.613147	0.090641	0.457424	20308.726562
10919.614051	0.090641	0.457424	20390.666016
10919.614917	0.090667	0.457424	20469.183594
10919.615916	0.090623	0.457424	20559.714844
10919.616821	0.090612	0.457424	20641.718750
10919.617739	0.090630	0.457424	20724.916016
10920.586706	1.218310	0.415912	537.274902
10920.587578	1.711868	0.415912	2030.023437
10920.588560	1.691038	0.415912	3690.622559
10920.589575	1.638168	0.415912	5353.362793
10920.590469	1.592131	0.415912	6776.728027
10920.591329	1.548794	0.415912	8108.690918
10920.592395	1.499125	0.415912	9706.757812
10920.593331	1.456721	0.415912	11070.249023
10920.594209	1.419177	0.415912	12316.287109
10920.595180	1.379425	0.415912	13655.708984
10920.596192	1.338344	0.415912	15010.112305
10920.597085	1.303217	0.415912	16173.884766
10920.597947	1.270177	0.415912	17268.777344
10920.599039	1.231652	0.415912	18613.740234
10920.599975	1.154711	0.415912	19694.548828
10920.600853	0.225516	0.415912	19892.552734
10920.601819	0.090630	0.415912	19980.101562
10920.602827	0.090604	0.415912	20071.429687
10920.603704	0.090667	0.415912	20150.943359
10920.604562	0.090604	0.415912	20228.681641
10920.605643	0.090725	0.415912	20326.755859
10920.606571	0.090626	0.415912	20410.857422
10920.607436	0.090696	0.415912	20489.308594
10920.608380	0.090670	0.415912	20574.900391
10920.609413	0.090652	0.415912	20668.542969
10921.627068	1.193214	0.497820	508.309204
10921.628069	1.710879	0.497820	2220.898926
10921.629135	1.681055	0.497820	4012.903320
10921.630041	1.632990	0.497820	5492.391602
10921.630910	1.586444	0.497820	6871.011719
10921.632031	1.534523	0.497820	8591.211914
10921.632994	1.489069	0.497820	10025.185547
10921.633869	1.450001	0.497820	11293.936523
10921.634911	1.406235	0.497820	12759.233398
10921.635954	1.363315	0.497820	14181.171875
10921.636853	1.327207	0.497820	15374.331055
10921.637797	1.290945	0.497820	16592.982422
10921.638858	1.251870	0.497820	17921.216797
10921.639791	1.218270	0.497820	19057.863281
10921.640663	0.878778	0.497820	19824.158203
10921.641722	0.099291	0.497820	19929.306641
10921.642743	0.090725	0.497820	20021.937500
10921.643621	0.090645	0.497820	20101.523437
10921.644588	0.090754	0.497820	20189.283203
10921.645628	0.090729	0.497820	20283.640625
10921.646543	0.090688	0.497820	20366.621094
10921.647401	0.090703	0.497820	20444.445312
10921.648458	0.090677	0.497820	20540.291016
10921.649467	0.090670	0.497820	20631.777344
10921.650355	0.090699	0.497820	20712.318359
10922.629578	1.200084	0.464280	528.037048
10922.630447	1.711377	0.464280	2015.223633
10922.631488	1.687555	0.464280	3771.968262
10922.632525	1.634242	0.464280	5466.677246
10922.633421	1.588001	0.464280	6889.525879
10922.634367	1.542436	0.464280	8348.670898
10922.635419	1.492449	0.464280	9918.726562
10922.636353	1.450594	0.464280	11273.582031
10922.637220	1.413201	0.464280	12498.827148
10922.638284	1.369724	0.464280	13956.213867
10922.639305	1.328998	0.464280	15313.121094
10922.640187	1.294384	0.464280	16454.767578
10922.641175	1.258832	0.464280	17698.494141
10922.642230	1.220490	0.464280	18986.111328
10922.643158	0.890156	0.464280	19812.175781
10922.644017	0.113320	0.464280	19909.517578
10922.645093	0.090685	0.464280	20007.093750
10922.646095	0.090645	0.464280	20097.919922
10922.646973	0.090677	0.464280	20177.535156
10922.647958	0.090659	0.464280	20266.833984
10922.649012	0.090681	0.464280	20362.412109
10922.649910	0.090626	0.464280	20443.794922
10922.650769	0.090659	0.464280	20521.671875
10922.651879	0.090729	0.464280	20622.380859
10922.652850	0.090623	0.464280	20710.375000
10923.660726	1.208243	0.488245	507.462219
10923.661834	1.714537	0.488245	2407.169678
10923.662804	1.680223	0.488245	4036.986328
10923.663680	1.634209	0.488245	5468.553223
10923.664713	1.581757	0.488245	7102.507812
10923.665763	1.531527	0.488245	8710.611328
10923.666656	1.488995	0.488245	10040.284180
10923.667604	1.446951	0.488245	11411.993164
10923.668672	1.401779	0.488245	12909.092773
10923.669607	1.363341	0.488245	14183.816406
10923.670480	1.328060	0.488245	15343.212891
10923.671549	1.287316	0.488245	16719.353516
10923.672565	1.249984	0.488245	17989.337891
10923.673461	1.217831	0.488245	19080.513672
10923.674442	0.746199	0.488245	19812.535156
10923.675477	0.094347	0.488245	19910.183594
10923.676394	0.090674	0.488245	19993.332031
10923.677255	0.090740	0.488245	20071.458984
10923.678344	0.090868	0.488245	20170.414062
10923.679348	0.090681	0.488245	20261.457031
10923.680227	0.090721	0.488245	20341.201172
10923.681218	0.090787	0.488245	20431.171875
10923.682264	0.090762	0.488245	20526.109375
10923.683156	0.090714	0.488245	20607.025391
10923.684011	0.090714	0.488245	20684.585937
10924.670393	1.192163	0.460236	504.285004
10924.671465	1.714266	0.460236	2341.978516
10924.672477	1.679150	0.460236	4041.278809
10924.673370	1.632839	0.460236	5499.404297
10924.674358	1.583258	0.460236	7063.663086
10924.675413	1.531904	0.460236	8679.822266
10924.676333	1.488387	0.460236	10049.138672
10924.677198	1.448313	0.460236	11301.929687
10924.678301	1.403214	0.460236	12849.674805
10924.679272	1.362927	0.460236	14173.077148
10924.680156	1.327906	0.460236	15346.946289
10924.681166	1.289388	0.460236	16649.228516
10924.682225	1.250537	0.460236	17973.546875
10924.683124	1.217889	0.460236	19068.429687
10924.684019	0.801229	0.460236	19785.529297
10924.685112	0.095427	0.460236	19889.832031
10924.686066	0.090601	0.460236	19976.265625
10924.686927	0.090707	0.460236	20054.363281
10924.687976	0.090699	0.460236	20149.507812
10924.689007	0.090615	0.460236	20242.931641
10924.689888	0.090575	0.460236	20322.728516
10924.690829	0.090714	0.460236	20408.089844
10924.691880	0.090663	0.460236	20503.376953
10924.692816	0.090626	0.460236	20588.203125
10924.693674	0.090626	0.460236	20665.960937
10925.705711	1.250632	0.454629	586.546570
10925.706590	1.713179	0.454629	2092.430664
10925.707595	1.688379	0.454629	3789.251465
10925.708640	1.633539	0.454629	5496.299316
10925.709549	1.587037	0.454629	6938.916504
10925.710410	1.543107	0.454629	8267.531250
10925.711490	1.493185	0.454629	9880.170898
10925.712494	1.448020	0.454629	11333.982422
10925.713389	1.410648	0.454629	12596.512695
10925.714384	1.369739	0.454629	13959.402344
10925.715444	1.327800	0.454629	15366.871094
10925.716339	1.292395	0.454629	16523.564453
10925.717228	1.258085	0.454629	17642.001953
10925.718338	1.219702	0.454629	18995.871094
10925.719305	0.836730	0.454629	19804.988281
10925.720174	0.105073	0.454629	19896.296875
10925.721210	0.090754	0.454629	19990.318359
10925.722234	0.090696	0.454629	20083.191406
10925.723120	0.090637	0.454629	20163.496094
10925.724057	0.090721	0.454629	20248.501953
10925.725111	0.090813	0.454629	20344.218750
10925.726039	0.090663	0.454629	20428.353516
10925.726898	0.090692	0.454629	20506.257812
10925.727950	0.090798	0.454629	20601.777344
10925.728964	0.090619	0.454629	20693.664062
10926.706110	1.196880	0.403993	512.264587
10926.706981	1.710095	0.403993	2001.757568
10926.708071	1.685387	0.403993	3838.829590
10926.709070	1.632858	0.403993	5470.054687
10926.709967	1.587931	0.403993	6894.428711
10926.710972	1.539119	0.403993	8441.243164
10926.712035	1.489490	0.403993	10024.570312
10926.712926	1.449023	0.403993	11315.650391
10926.713827	1.409993	0.403993	12586.053711
10926.714929	1.365403	0.403993	14090.727539
10926.715884	1.327401	0.403993	15358.395508
10926.716756	1.293461	0.403993	16486.292969
10926.717812	1.254587	0.403993	17811.136719
10926.718849	1.217743	0.403993	19073.935547
10926.719751	0.834229	0.403993	19826.410156
10926.720715	0.105249	0.403993	19927.871094
10926.721769	0.090645	0.403993	20023.410156
10926.722689	0.090619	0.403993	20106.779297
10926.723550	0.090677	0.403993	20184.853516
10926.724628	0.090670	0.403993	20282.595703
10926.725632	0.090652	0.403993	20373.609375
10926.726501	0.090641	0.403993	20452.376953
10926.727485	0.090696	0.403993	20541.621094
10926.728536	0.090652	0.403993	20636.896484
10926.729438	0.090612	0.403993	20718.628906
10927.748631	1.244714	0.441814	644.762024
10927.749535	1.714618	0.441814	2194.776611
10927.750465	1.687848	0.441814	3764.475098
10927.751337	1.642145	0.441814	5196.425293
10927.752302	1.592373	0.441814	6733.065430
10927.753243	1.545989	0.441814	8187.840820
10927.754138	1.504120	0.441814	9534.028320
10927.755135	1.459398	0.441814	10989.047852
10927.756058	1.418328	0.441814	12298.164062
10927.756983	1.380934	0.441814	13575.528320
10927.757853	1.344005	0.441814	14744.812500
10927.758908	1.304216	0.441814	16120.760742
10927.759800	1.270261	0.441814	17253.833984
10927.760721	1.237438	0.441814	18393.513672
10927.761588	1.205929	0.441814	19439.054687
10927.762597	0.366530	0.441814	19808.882812
10927.763516	0.090685	0.441814	19892.222656
10927.764377	0.090721	0.441814	19970.333984
10927.765384	0.090692	0.441814	20061.660156
10927.766262	0.090623	0.441814	20141.226562
10927.767167	0.090586	0.441814	20223.207031
10927.768046	0.090688	0.441814	20302.921875
10927.769011	0.090692	0.441814	20390.439453
10927.769945	0.090608	0.441814	20475.066406
10927.770834	0.090648	0.441814	20555.652344
10927.771837	0.090681	0.441814	20646.605469
10928.736703	1.194086	0.398159	509.874542
10928.737569	1.709974	0.398159	1990.712402
10928.738628	1.687504	0.398159	3777.778809
10928.739529	1.640424	0.398159	5255.800293
10928.740407	1.595482	0.398159	6656.633789
10928.741364	1.549134	0.398159	8139.155273
10928.742350	1.502194	0.398159	9620.318359
10928.743281	1.459658	0.398159	10979.259766
10928.744149	1.422063	0.398159	12213.610352
10928.745201	1.379535	0.398159	13664.880859
10928.746085	1.342998	0.398159	14852.090820
10928.746956	1.308684	0.398159	15991.955078
10928.747879	1.273206	0.398159	17167.123047
10928.748875	1.236797	0.398159	18398.972656
10928.749795	1.204699	0.398159	19507.294922
10928.750685	0.406399	0.398159	19868.990234
10928.751675	0.091176	0.398159	19959.253906
10928.752593	0.090703	0.398159	20042.519531
10928.753512	0.090645	0.398159	20125.822266
10928.754376	0.090773	0.398159	20204.250000
10928.755416	0.090710	0.398159	20298.589844
10928.756305	0.090586	0.398159	20379.121094
10928.757177	0.090707	0.398159	20458.216797
10928.758178	0.090710	0.398159	20549.017578
10928.759109	0.090667	0.398159	20633.427734
10928.760021	0.090659	0.398159	20716.109375
10929.789376	1.194258	0.470992	513.530884
10929.790239	1.709978	0.470992	1989.241943
10929.791304	1.686852	0.470992	3785.739014
10929.792258	1.637446	0.470992	5347.862793
10929.793134	1.592725	0.470992	6743.089844
10929.794068	1.547150	0.470992	8188.127930
10929.795118	1.498085	0.470992	9761.117187
10929.796000	1.457497	0.470992	11046.629883
10929.796860	1.420455	0.470992	12268.221680
10929.797873	1.377773	0.470992	13663.906250
10929.798847	1.339120	0.470992	14968.208984
10929.799729	1.304432	0.470992	16118.718750
10929.800625	1.269529	0.470992	17256.216797
10929.801738	1.231088	0.470992	18626.417969
10929.802637	1.169465	0.470992	19677.767578
10929.803504	0.250151	0.470992	19894.648437
10929.804557	0.090747	0.470992	19990.205078
10929.805519	0.090729	0.470992	20077.486328
10929.806394	0.090714	0.470992	20156.861328
10929.807274	0.090721	0.470992	20236.695312
10929.808373	0.090795	0.470992	20336.478516
10929.809253	0.090659	0.470992	20416.257812
10929.810111	0.090641	0.470992	20494.027344
10929.811196	0.090879	0.470992	20592.630859
10929.812164	0.090634	0.470992	20680.363281
10930.774558	1.278076	0.437847	655.653076
10930.775502	1.715969	0.437847	2275.528076
10930.776368	1.688353	0.437847	3737.642090
10930.777415	1.634293	0.437847	5448.747070
10930.778449	1.582123	0.437847	7084.662109
10930.779326	1.538917	0.437847	8434.292969
10930.780289	1.493855	0.437847	9872.875000
10930.781353	1.445815	0.437847	11411.222656
10930.782287	1.406689	0.437847	12725.070312
10930.783156	1.369640	0.437847	13915.287109
10930.784223	1.327928	0.437847	15332.186523
10930.785229	1.288898	0.437847	16628.818359
10930.786125	1.256049	0.437847	17754.238281
10930.787106	1.221200	0.437847	18952.234375
10930.788181	0.743551	0.437847	19751.550781
10930.789086	0.096511	0.437847	19838.892578
10930.789949	0.090696	0.437847	19917.162109
10930.791060	0.090861	0.437847	20018.107422
10930.792038	0.090674	0.437847	20106.787109
10930.792901	0.090681	0.437847	20185.044922
10930.794009	0.090941	0.437847	20285.808594
10930.795042	0.090725	0.437847	20379.527344
10930.795932	0.090677	0.437847	20460.230469
10930.796853	0.090806	0.437847	20543.863281
10930.797908	0.090743	0.437847	20639.597656
10931.824154	1.283877	0.453903	657.344971
10931.825149	1.716204	0.453903	2364.967529
10931.826043	1.684654	0.453903	3871.048584
10931.827022	1.633733	0.453903	5470.473145
10931.828081	1.580306	0.453903	7144.017578
10931.828994	1.535713	0.453903	8546.123047
10931.829862	1.492939	0.453903	9841.994141
10931.830985	1.444581	0.453903	11464.258789
10931.831961	1.403752	0.453903	12834.321289
10931.832834	1.367347	0.453903	14028.015625
10931.833890	1.325555	0.453903	15427.801758
10931.834935	1.285463	0.453903	16771.109375
10931.835824	1.252368	0.453903	17884.464844
10931.836744	1.219277	0.453903	19006.199219
10931.837823	0.688396	0.453903	19748.978516
10931.838756	0.094457	0.453903	19837.107422
10931.839618	0.090674	0.453903	19915.267578
10931.840685	0.090831	0.453903	20012.185547
10931.841691	0.090751	0.453903	20103.480469
10931.842563	0.090732	0.453903	20182.599609
10931.843519	0.090762	0.453903	20269.367187
10931.844577	0.090813	0.453903	20365.447266
10931.845488	0.090747	0.453903	20448.117187
10931.846355	0.090681	0.453903	20526.738281
10931.847398	0.090784	0.453903	20621.425781
10932.822456	1.184403	0.463193	498.633698
10932.823406	1.708876	0.463193	2122.065674
10932.824461	1.683490	0.463193	3898.147461
10932.825392	1.635128	0.463193	5420.451660
10932.826255	1.590037	0.463193	6792.653320
10932.827321	1.539177	0.463193	8433.416016
10932.828336	1.491171	0.463193	9946.954102
10932.829216	1.451788	0.463193	11224.527344
10932.830209	1.410447	0.463193	12625.100586
10932.831278	1.365996	0.463193	14085.350586
10932.832182	1.329672	0.463193	15287.374023
10932.833043	1.294622	0.463193	16402.042969
10932.834137	1.255723	0.463193	17775.802734
10932.835130	1.219845	0.463193	18987.109375
10932.836008	0.929366	0.463193	19803.093750
10932.837002	0.114133	0.463193	19916.542969
10932.838064	0.090688	0.463193	20012.853516
10932.838950	0.090762	0.463193	20093.267578
10932.839823	0.090758	0.463193	20172.500000
10932.840929	0.090780	0.463193	20272.902344
10932.841888	0.090663	0.463193	20359.847656
10932.842755	0.090659	0.463193	20438.449219
10932.843768	0.090769	0.463193	20530.398437
10932.844802	0.090699	0.463193	20624.181641
10932.845691	0.090692	0.463193	20704.806641
10933.853741	1.306630	0.503093	688.593811
10933.854774	1.715522	0.503093	2460.728516
10933.855662	1.681787	0.503093	3954.155518
10933.856610	1.632803	0.503093	5502.052734
10933.857660	1.579127	0.503093	7160.136230
10933.858602	1.533757	0.503093	8604.935547
10933.859468	1.492174	0.503093	9897.158203
10933.860544	1.444962	0.503093	11451.937500
10933.861546	1.402756	0.503093	12857.499023
10933.862443	1.365582	0.503093	14082.426758
10933.863406	1.327636	0.503093	15360.939453
10933.864466	1.286862	0.503093	16725.011719
10933.865383	1.252591	0.503093	17873.638672
10933.866248	1.220936	0.503093	18929.748047
10933.867341	0.746656	0.503093	19745.843750
10933.868329	0.094413	0.503093	19839.123047
10933.869205	0.090696	0.503093	19918.572266
10933.870214	0.090850	0.503093	20010.240234
10933.871265	0.090729	0.503093	20105.595703
10933.872148	0.090652	0.503093	20185.640625
10933.873003	0.090688	0.503093	20263.179687
10933.874101	0.090835	0.503093	20362.916016
10933.875073	0.090710	0.503093	20451.085937
10933.875937	0.090663	0.503093	20529.417969
10933.876988	0.090846	0.503093	20624.896484
10934.862271	1.193610	0.523646	508.477692
10934.863242	1.709355	0.523646	2168.261963
10934.864305	1.681663	0.523646	3955.869141
10934.865239	1.632718	0.523646	5480.828125
10934.866109	1.587660	0.523646	6862.092285
10934.867187	1.535995	0.523646	8517.894531
10934.868179	1.489171	0.523646	9995.152344
10934.869074	1.449448	0.523646	11292.408203
10934.870079	1.407539	0.523646	12706.985352
10934.871133	1.364183	0.523646	14144.834961
10934.872033	1.327723	0.523646	15339.786133
10934.872895	1.292637	0.523646	16454.039062
10934.873994	1.253767	0.523646	17831.929687
10934.874960	1.219266	0.523646	19009.740234
10934.875821	0.931117	0.523646	19811.431641
10934.876929	0.099727	0.523646	19921.927734
10934.877974	0.090681	0.523646	20016.689453
10934.878851	0.090659	0.523646	20096.197266
10934.879769	0.090743	0.523646	20179.500000
10934.880848	0.090806	0.523646	20277.478516
10934.881772	0.090725	0.523646	20361.308594
10934.882638	0.090740	0.523646	20439.888672
10934.883661	0.090806	0.523646	20532.783203
10934.884688	0.090692	0.523646	20625.923828
10934.885576	0.090626	0.523646	20706.400391
10935.894542	1.275747	0.521914	628.943298
10935.895430	1.713871	0.521914	2150.860596
10935.896308	1.691338	0.521914	3635.855469
10935.897263	1.642152	0.521914	5204.110840
10935.898238	1.592212	0.521914	6756.517578
10935.899165	1.547040	0.521914	8190.623535
10935.900039	1.505013	0.521914	9506.004883
10935.901114	1.457227	0.521914	11072.523437
10935.902009	1.418144	0.521914	12341.762695
10935.902885	1.381912	0.521914	13552.317383
10935.903759	1.344606	0.521914	14727.502930
10935.904823	1.304528	0.521914	16115.520508
10935.905708	1.270664	0.521914	17240.058594
10935.906587	1.239272	0.521914	18329.378906
10935.907583	1.203647	0.521914	19528.210937
10935.908516	0.335248	0.521914	19840.998047
10935.909435	0.090597	0.521914	19924.255859
10935.910298	0.090674	0.521914	20002.507812
10935.911328	0.090685	0.521914	20095.914062
10935.912217	0.090732	0.521914	20176.574219
10935.913093	0.090652	0.521914	20255.984375
10935.914084	0.090773	0.521914	20345.939453
10935.915043	0.090645	0.521914	20432.867187
10935.915968	0.090696	0.521914	20516.761719
10935.916831	0.090699	0.521914	20595.035156
10936.893994	1.266273	0.515887	679.988647
10936.894947	1.715819	0.515887	2315.164307
10936.895821	1.686357	0.515887	3789.040527
10936.896772	1.637234	0.515887	5346.049805
10936.897815	1.584130	0.515887	6998.296875
10936.898709	1.540170	0.515887	8375.208984
10936.899587	1.498887	0.515887	9691.231445
10936.900560	1.455590	0.515887	11107.520508
10936.901530	1.413648	0.515887	12478.758789
10936.902406	1.377477	0.515887	13685.428711
10936.903319	1.339629	0.515887	14908.509766
10936.904415	1.298419	0.515887	16331.577148
10936.905297	1.264574	0.515887	17446.931641
10936.906164	1.233318	0.515887	18516.218750
10936.907189	1.094403	0.515887	19637.982422
10936.908157	0.169270	0.515887	19801.835937
10936.909030	0.090641	0.515887	19880.964844
10936.909924	0.090743	0.515887	19962.089844
10936.911009	0.090688	0.515887	20060.486328
10936.911896	0.090677	0.515887	20140.917969
10936.912755	0.090732	0.515887	20218.857422
10936.913812	0.090883	0.515887	20314.919922
10936.914782	0.090714	0.515887	20402.912109
10936.915656	0.090791	0.515887	20482.263672
10936.916519	0.090718	0.515887	20560.552734
10937.942463	1.199290	0.570986	509.698059
10937.943535	1.713127	0.570986	2346.170654
10937.944543	1.678810	0.570986	4038.410889
10937.945424	1.632762	0.570986	5476.874512
10937.946432	1.582892	0.570986	7072.429687
10937.947496	1.531436	0.570986	8701.876953
10937.948395	1.487911	0.570986	10039.509766
10937.949258	1.447577	0.570986	11288.768555
10937.950383	1.402500	0.570986	12866.581055
10937.951347	1.362605	0.570986	14180.131836
10937.952212	1.328137	0.570986	15328.970703
10937.953231	1.288403	0.570986	16641.853516
10937.954284	1.250035	0.570986	17958.140625
10937.955178	1.218087	0.570986	19047.111328
10937.956108	0.797882	0.570986	19789.142578
10937.957188	0.094962	0.570986	19891.701172
10937.958122	0.090615	0.570986	19976.335937
10937.958988	0.090729	0.570986	20054.906250
10937.960020	0.090787	0.570986	20148.599609
10937.961043	0.090688	0.570986	20241.373047
10937.961929	0.090688	0.570986	20321.722656
10937.962866	0.090692	0.570986	20406.701172
10937.963917	0.090802	0.570986	20502.134766
10937.964851	0.090677	0.570986	20586.828125
10937.965713	0.090740	0.570986	20665.044922
10938.927597	1.248442	0.527859	594.258606
10938.928473	1.712922	0.527859	2094.778564
10938.929427	1.689316	0.527859	3706.386230
10938.930492	1.633872	0.527859	5446.459961
10938.931428	1.586320	0.527859	6931.254883
10938.932294	1.543315	0.527859	8267.765625
10938.933362	1.493602	0.527859	9862.932617
10938.934373	1.448419	0.527859	11327.284180
10938.935269	1.410454	0.527859	12591.050781
10938.936250	1.370508	0.527859	13935.518555
10938.937302	1.328122	0.527859	15332.703125
10938.938210	1.292534	0.527859	16506.324219
10938.939073	1.259645	0.527859	17593.398437
10938.940158	1.221973	0.527859	18919.238281
10938.941164	0.849499	0.527859	19773.833984
10938.942042	0.107216	0.527859	19867.968750
10938.943052	0.090758	0.527859	19959.634766
10938.944104	0.090758	0.527859	20055.111328
10938.944977	0.090674	0.527859	20134.269531
10938.945844	0.090806	0.527859	20212.998047
10938.946949	0.090820	0.527859	20313.355469
10938.947920	0.090736	0.527859	20401.460937
10938.948787	0.090707	0.527859	20480.103516
10938.949817	0.090795	0.527859	20573.621094
10938.950846	0.090776	0.527859	20667.029297
10939.977241	1.281017	0.570918	646.913513
10939.978145	1.714746	0.570918	2197.043945
10939.979010	1.688156	0.570918	3657.298340
10939.980119	1.632795	0.570918	5468.068359
10939.981108	1.582057	0.570918	7032.722656
10939.981995	1.539305	0.570918	8398.086914
10939.983014	1.491903	0.570918	9918.335937
10939.984066	1.445310	0.570918	11438.801758
10939.984946	1.407393	0.570918	12677.307617
10939.985840	1.369047	0.570918	13901.235352
10939.986947	1.326544	0.570918	15369.719727
10939.987889	1.289509	0.570918	16584.437500
10939.988761	1.256960	0.570918	17680.507812
10939.989784	1.220607	0.570918	18929.187500
10939.990839	0.772013	0.570918	19743.660156
10939.991728	0.099060	0.570918	19831.724609
10939.992673	0.090652	0.570918	19917.390625
10939.993718	0.090791	0.570918	20012.267578
10939.994645	0.090637	0.570918	20096.289062
10939.995511	0.090685	0.570918	20174.822266
10939.996581	0.090839	0.570918	20272.019531
10939.997598	0.090696	0.570918	20364.257812
10939.998490	0.090688	0.570918	20445.152344
10939.999440	0.090740	0.570918	20531.355469
10940.000495	0.090751	0.570918	20627.097656
10940.974549	1.210986	0.496902	540.099854
10940.975410	1.710300	0.496902	2012.668457
10940.976499	1.684926	0.496902	3847.552246
10940.977517	1.631781	0.496902	5508.705078
10940.978392	1.586616	0.496902	6896.994141
10940.979362	1.539760	0.496902	8390.560547
10940.980420	1.489625	0.496902	9966.583984
10940.981334	1.448679	0.496902	11290.676758
10940.982211	1.410619	0.496902	12527.789062
10940.983310	1.366194	0.496902	14029.236328
10940.984307	1.326434	0.496902	15351.691406
10940.985199	1.291926	0.496902	16504.089844
10940.986199	1.255441	0.496902	17759.531250
10940.987258	1.217955	0.496902	19049.345703
10940.988159	0.846035	0.496902	19811.623047
10940.989046	0.106696	0.496902	19906.261719
10940.990149	0.090787	0.496902	20006.400391
10940.991102	0.090637	0.496902	20092.777344
10940.991970	0.090718	0.496902	20171.519531
10940.993013	0.090802	0.496902	20266.226562
10940.994033	0.090652	0.496902	20358.691406
10940.994918	0.090736	0.496902	20438.992187
10940.995850	0.090791	0.496902	20523.609375
10940.996902	0.090688	0.496902	20619.013672
10940.997838	0.090784	0.496902	20703.986328
10942.010833	1.227653	0.549943	546.305359
10942.011715	1.711615	0.549943	2055.949707
10942.012731	1.687474	0.549943	3770.423828
10942.013776	1.633667	0.549943	5477.605957
10942.014677	1.586847	0.549943	6907.354980
10942.015552	1.542085	0.549943	8256.679687
10942.016649	1.492408	0.549943	9893.851562
10942.017622	1.449086	0.549943	11303.812500
10942.018486	1.412194	0.549943	12523.947266
10942.019548	1.368636	0.549943	13977.439453
10942.020586	1.327397	0.549943	15355.278320
10942.021473	1.292644	0.549943	16501.853516
10942.022420	1.257718	0.549943	17692.912109
10942.023493	1.219329	0.549943	19001.251953
10942.024442	0.862332	0.549943	19819.605469
10942.025299	0.109288	0.549943	19913.265625
10942.026333	0.090707	0.549943	20007.056641
10942.027355	0.090681	0.549943	20099.732422
10942.028242	0.090648	0.549943	20180.136719
10942.029200	0.090751	0.549943	20267.076172
10942.030251	0.090787	0.549943	20362.494141
10942.031172	0.090659	0.549943	20445.992187
10942.032033	0.090696	0.549943	20524.082031
10942.033093	0.090842	0.549943	20620.375000
10942.034096	0.090692	0.549943	20711.339844
10943.014344	1.200575	0.548807	523.450684
10943.015211	1.709751	0.548807	2005.804810
10943.016294	1.684709	0.548807	3830.345215
10943.017314	1.631748	0.548807	5494.728516
10943.018198	1.586832	0.548807	6897.488281
10943.019201	1.539518	0.548807	8441.625000
10943.020248	1.489167	0.548807	10000.783203
10943.021156	1.448156	0.548807	11315.708008
10943.022019	1.410417	0.548807	12532.898437
10943.023115	1.366553	0.548807	14030.640625
10943.024115	1.326823	0.548807	15357.462891
10943.024995	1.292362	0.548807	16494.742187
10943.025990	1.255624	0.548807	17744.087891
10943.027081	1.217714	0.548807	19072.613281
10943.027964	0.843523	0.548807	19817.443359
10943.028833	0.106366	0.548807	19909.875000
10943.029949	0.090784	0.548807	20011.189453
10943.030902	0.090626	0.548807	20097.556641
10943.031769	0.090659	0.548807	20176.158203
10943.032787	0.090758	0.548807	20268.550781
10943.033814	0.090652	0.548807	20361.650391
10943.034698	0.090656	0.548807	20441.789062
10943.035623	0.090751	0.548807	20525.734375
10943.036675	0.090769	0.548807	20621.222656
10943.037621	0.090674	0.548807	20707.000000
10944.043530	1.260538	0.577871	634.050781
10944.044420	1.714138	0.577871	2159.633789
10944.045287	1.688888	0.577871	3623.899658
10944.046402	1.633242	0.577871	5444.964844
10944.047383	1.583778	0.577871	6998.651367
10944.048256	1.541166	0.577871	8344.088867
10944.049334	1.490339	0.577871	9950.674805
10944.050371	1.444222	0.577871	11448.333008
10944.051267	1.406378	0.577871	12708.448242
10944.052203	1.367805	0.577871	13988.713867
10944.053273	1.325189	0.577871	15406.666016
10944.054212	1.288707	0.577871	16616.761719
10944.055075	1.256360	0.577871	17701.000000
10944.056131	1.219585	0.577871	18988.880859
10944.057160	0.754523	0.577871	19765.285156
10944.058040	0.099045	0.577871	19852.445312
10944.059015	0.090758	0.577871	19940.933594
10944.060062	0.090802	0.577871	20036.003906
10944.060975	0.090688	0.577871	20118.802734
10944.061831	0.090820	0.577871	20196.544922
10944.062884	0.090828	0.577871	20292.185547
10944.063889	0.090736	0.577871	20383.375000
10944.064779	0.090751	0.577871	20464.142578
10944.065754	0.090809	0.577871	20552.681641
10944.066795	0.090754	0.577871	20647.156250
10945.055164	1.207244	0.566974	515.493042
10945.056250	1.714054	0.566974	2376.955566
10945.057247	1.678191	0.566974	4050.111816
10945.058146	1.631345	0.566974	5516.691406
10945.059134	1.581775	0.566974	7079.484863
10945.060201	1.531058	0.566974	8713.124023
10945.061098	1.487461	0.566974	10047.376953
10945.061974	1.447218	0.566974	11315.139648
10945.063075	1.402515	0.566974	12859.308594
10945.064034	1.363037	0.566974	14166.460937
10945.064897	1.328445	0.566974	15312.909180
10945.065944	1.288282	0.566974	16661.740234
10945.066972	1.250369	0.566974	17947.119141
10945.067859	1.218450	0.566974	19027.884766
10945.068820	0.793125	0.566974	19790.078125
10945.069874	0.096134	0.566974	19891.404297
10945.070803	0.090674	0.566974	19975.640625
10945.071658	0.090707	0.566974	20053.195312
10945.072697	0.090795	0.566974	20147.531250
10945.073742	0.090696	0.566974	20242.308594
10945.074612	0.090703	0.566974	20321.220703
10945.075575	0.090762	0.566974	20408.625000
10945.076620	0.090714	0.566974	20503.421875
10945.077541	0.090674	0.566974	20586.931641
10945.078408	0.090696	0.566974	20665.564453
10946.087366	1.200469	0.565722	521.003479
10946.088237	1.710051	0.565722	2010.458252
10946.089288	1.685819	0.565722	3782.253906
10946.090308	1.633037	0.565722	5447.951660
10946.091196	1.587674	0.565722	6857.806641
10946.092161	1.541188	0.565722	8345.052734
10946.093220	1.491401	0.565722	9924.447266
10946.094146	1.449573	0.565722	11266.751953
10946.095015	1.411827	0.565722	12493.629883
10946.096103	1.367758	0.565722	13981.750000
10946.097099	1.327866	0.565722	15304.304687
10946.097995	1.293127	0.565722	16462.947266
10946.099005	1.256385	0.565722	17731.896484
10946.100038	1.219680	0.565722	18991.826172
10946.100940	0.902340	0.565722	19805.736328
10946.101800	0.114869	0.565722	19904.523437
10946.102896	0.090765	0.565722	20004.001953
10946.103850	0.090699	0.565722	20090.529297
10946.104708	0.090670	0.565722	20168.324219
10946.105784	0.090780	0.565722	20266.003906
10946.106809	0.090729	0.565722	20359.000000
10946.107686	0.090612	0.565722	20438.466797
10946.108589	0.090740	0.565722	20520.404297
10946.109466	0.090681	0.565722	20599.931641
10946.110429	0.090699	0.565722	20687.275391
10947.093952	1.192841	0.557512	512.921448
10947.094832	1.710289	0.557512	2017.976074
10947.095707	1.694769	0.557512	3500.899170
10947.096689	1.646052	0.557512	5117.322266
10947.097609	1.597804	0.557512	6587.301758
10947.098490	1.553448	0.557512	7955.889648
10947.099382	1.509891	0.557512	9302.712891
10947.100425	1.463917	0.557512	10829.578125
10947.101346	1.423967	0.557512	12141.051758
10947.102211	1.387588	0.557512	13341.315430
10947.103217	1.347041	0.557512	14696.438477
10947.104141	1.309669	0.557512	15906.573242
10947.105065	1.275322	0.557512	17084.970703
10947.105930	1.242389	0.557512	18159.636719
10947.106987	1.206489	0.557512	19434.896484
10947.107884	0.466326	0.557512	19853.191406
10947.108755	0.091633	0.557512	19933.003906
10947.109769	0.090721	0.557512	20024.996094
10947.110694	0.090677	0.557512	20108.873047
10947.111608	0.090608	0.557512	20191.689453
10947.112467	0.090743	0.557512	20269.638672
10947.113512	0.090751	0.557512	20364.472656
10947.114391	0.090641	0.557512	20444.146484
10947.115270	0.090725	0.557512	20523.894531
10947.116221	0.090835	0.557512	20610.279297
10947.117174	0.090685	0.557512	20696.701172
10948.129276	1.227103	0.571792	603.734802
10948.130282	1.714878	0.571792	2328.902100
10948.131186	1.683285	0.571792	3850.591797
10948.132063	1.635458	0.571792	5284.888184
10948.133172	1.582119	0.571792	7039.458008
10948.134081	1.537936	0.571792	8437.441406
10948.134958	1.496426	0.571792	9749.806641
10948.135822	1.455055	0.571792	11006.973633
10948.136894	1.411637	0.571792	12520.248047
10948.137791	1.374492	0.571792	13753.167969
10948.138656	1.338278	0.571792	14910.778320
10948.139760	1.297028	0.571792	16342.697266
10948.140667	1.262765	0.571792	17488.025391
10948.141539	1.231483	0.571792	18561.878906
10948.142550	1.088617	0.571792	19662.470703
10948.143553	0.147096	0.571792	19810.007812
10948.144439	0.090634	0.571792	19890.308594
10948.145294	0.090813	0.571792	19967.953125
10948.146394	0.090710	0.571792	20067.734375
10948.147298	0.090710	0.571792	20149.736328
10948.148171	0.090751	0.571792	20228.960937
10948.149140	0.090879	0.571792	20317.023437
10948.150156	0.090692	0.571792	20409.166016
10948.151042	0.090740	0.571792	20489.560547
10948.151902	0.090725	0.571792	20567.583984
10949.125654	1.275817	0.579510	641.735718
10949.126665	1.714775	0.579510	2375.373535
10949.127558	1.683003	0.579510	3878.295166
10949.128532	1.632733	0.579510	5468.577148
10949.129590	1.579025	0.579510	7139.185547
10949.130512	1.534124	0.579510	8553.647461
10949.131382	1.491823	0.579510	9851.533203
10949.132486	1.443695	0.579510	11445.373047
10949.133487	1.401650	0.579510	12848.424805
10949.134388	1.364854	0.579510	14078.158203
10949.135381	1.325490	0.579510	15394.369141
10949.136448	1.284921	0.579510	16765.378906
10949.137350	1.251226	0.579510	17893.984375
10949.138253	1.218237	0.579510	18994.052734
10949.139338	0.677366	0.579510	19728.994141
10949.140292	0.093354	0.579510	19818.054687
10949.141152	0.090802	0.579510	19896.144531
10949.142199	0.090787	0.579510	19991.199219
10949.143220	0.090740	0.579510	20083.843750
10949.144104	0.090703	0.579510	20164.025391
10949.145036	0.090795	0.579510	20248.646484
10949.146098	0.090831	0.579510	20345.109375
10949.147031	0.090645	0.579510	20429.681641
10949.147889	0.090747	0.579510	20507.542969
10949.148933	0.090828	0.579510	20602.367187
10950.167991	1.200831	0.628426	506.750793
10950.169080	1.713435	0.628426	2372.681641
10950.170085	1.677638	0.628426	4058.707764
10950.170965	1.631873	0.628426	5494.755859
10950.171985	1.581196	0.628426	7107.576172
10950.173032	1.530476	0.628426	8709.984375
10950.173921	1.487857	0.628426	10032.688477
10950.174833	1.446222	0.628426	11351.642578
10950.175931	1.401251	0.628426	12890.216797
10950.176872	1.362103	0.628426	14171.956055
10950.177748	1.327108	0.628426	15334.502930
10950.178777	1.287308	0.628426	16659.142578
10950.179811	1.249589	0.628426	17951.216797
10950.180707	1.217824	0.628426	19042.386719
10950.181660	0.788049	0.628426	19793.398437
10950.182717	0.094772	0.628426	19893.572266
10950.183644	0.090652	0.628426	19977.607422
10950.184505	0.090688	0.628426	20055.689453
10950.185582	0.090747	0.628426	20153.423828
10950.186580	0.090637	0.628426	20243.878906
10950.187466	0.090648	0.628426	20324.193359
10950.188443	0.090725	0.628426	20412.832031
10950.189482	0.090754	0.628426	20507.125000
10950.190395	0.090692	0.628426	20589.927734
10950.191256	0.090696	0.628426	20668.017578
10951.160258	1.197352	0.620761	514.861511
10951.161123	1.708942	0.620761	1993.096191
10951.162204	1.684296	0.620761	3813.819824
10951.163223	1.631353	0.620761	5476.167969
10951.164118	1.586136	0.620761	6895.760254
10951.165114	1.538287	0.620761	8427.894531
10951.166182	1.488076	0.620761	10017.160156
10951.167089	1.447313	0.620761	11329.873047
10951.167956	1.408499	0.620761	12551.041016
10951.169082	1.364227	0.620761	14087.161133
10951.170056	1.325801	0.620761	15378.491211
10951.170927	1.291721	0.620761	16503.580078
10951.171969	1.253408	0.620761	17809.630859
10951.173007	1.216783	0.620761	19072.652344
10951.173907	0.820521	0.620761	19811.121094
10951.174835	0.104062	0.620761	19907.691406
10951.175890	0.090699	0.620761	20003.378906
10951.176827	0.090699	0.620761	20088.365234
10951.177693	0.090703	0.620761	20166.914062
10951.178750	0.090780	0.620761	20262.869141
10951.179766	0.090707	0.620761	20355.027344
10951.180645	0.090725	0.620761	20434.775391
10951.181607	0.090809	0.620761	20522.134766
10951.182672	0.090732	0.620761	20618.765625
10951.183578	0.090732	0.620761	20700.968750
10952.208917	1.280050	0.677822	654.105591
10952.209881	1.715178	0.677822	2307.537354
10952.210758	1.685896	0.677822	3786.068359
10952.211792	1.632986	0.677822	5474.575684
10952.212828	1.580464	0.677822	7111.936523
10952.213716	1.536779	0.677822	8476.595703
10952.214598	1.493730	0.677822	9794.066406
10952.215695	1.446519	0.677822	11380.897461
10952.216651	1.406195	0.677822	12725.219727
10952.217517	1.369827	0.677822	13911.489258
10952.218561	1.328668	0.677822	15298.619141
10952.219605	1.288466	0.677822	16643.777344
10952.220486	1.255122	0.677822	17749.539062
10952.221424	1.221965	0.677822	18895.742187
10952.222524	0.759426	0.677822	19731.111328
10952.223437	0.097211	0.677822	19819.865234
10952.224302	0.090703	0.677822	19898.324219
10952.225350	0.090853	0.677822	19993.539062
10952.226360	0.090762	0.677822	20085.208984
10952.227248	0.090677	0.677822	20165.730469
10952.228208	0.090886	0.677822	20252.980469
10952.229257	0.090762	0.677822	20348.189453
10952.230183	0.090743	0.677822	20432.218750
10952.231047	0.090758	0.677822	20510.632812
10952.232124	0.090857	0.677822	20608.486328
10953.196064	1.279856	0.644568	660.405701
10953.196942	1.713329	0.644568	2164.708496
10953.197838	1.686991	0.644568	3676.252441
10953.198948	1.631539	0.644568	5487.261230
10953.199891	1.583382	0.644568	6980.390625
10953.200761	1.541056	0.644568	8321.109375
10953.201789	1.492181	0.644568	9855.072266
10953.202827	1.446141	0.644568	11356.166992
10953.203721	1.408586	0.644568	12615.443359
10953.204666	1.369592	0.644568	13909.708008
10953.205733	1.326932	0.644568	15325.544922
10953.206665	1.290729	0.644568	16528.503906
10953.207533	1.257990	0.644568	17620.439453
10953.208609	1.220186	0.644568	18933.359375
10953.209616	0.820488	0.644568	19759.591797
10953.210511	0.101382	0.644568	19850.328125
10953.211464	0.090751	0.644568	19936.814453
10953.212519	0.090751	0.644568	20032.556641
10953.213442	0.090648	0.644568	20116.224609
10953.214299	0.090776	0.644568	20194.019531
10953.215379	0.090791	0.644568	20292.074219
10953.216370	0.090718	0.644568	20381.974609
10953.217247	0.090729	0.644568	20461.542969
10953.218249	0.090820	0.644568	20552.544922
10953.219307	0.090743	0.644568	20648.550781
10954.245641	1.260674	0.707095	631.597534
10954.246568	1.714255	0.707095	2220.712402
10954.247430	1.688200	0.707095	3675.940430
10954.248497	1.633575	0.707095	5418.965332
10954.249515	1.581804	0.707095	7029.242187
10954.250409	1.538657	0.707095	8404.801758
10954.251386	1.493046	0.707095	9863.507812
10954.252433	1.446083	0.707095	11377.556641
10954.253344	1.407506	0.707095	12659.794922
10954.254205	1.370837	0.707095	13840.085937
10954.255284	1.328851	0.707095	15273.916016
10954.256282	1.290095	0.707095	16561.431641
10954.257162	1.257462	0.707095	17667.998047
10954.258180	1.221881	0.707095	18911.873047
10954.259250	0.788415	0.707095	19755.478516
10954.260130	0.100298	0.707095	19843.740234
10954.260989	0.090652	0.707095	19921.609375
10954.262081	0.090758	0.707095	20020.716797
10954.263050	0.090703	0.707095	20108.607422
10954.263921	0.090729	0.707095	20187.632812
10954.264968	0.090868	0.707095	20282.771484
10954.266005	0.090718	0.707095	20376.845703
10954.266890	0.090729	0.707095	20457.140625
10954.267802	0.090736	0.707095	20539.892578
10954.268874	0.090758	0.707095	20637.185547
10955.233724	1.191991	0.662635	507.788147
10955.234738	1.708813	0.662635	2240.524902
10955.235795	1.679322	0.662635	4015.568848
10955.236695	1.631895	0.662635	5484.273926
10955.237563	1.585686	0.662635	6860.649414
10955.238669	1.534230	0.662635	8557.507812
10955.239629	1.488896	0.662635	9986.848633
10955.240495	1.450023	0.662635	11242.568359
10955.241521	1.406199	0.662635	12685.328125
10955.242590	1.363008	0.662635	14142.383789
10955.243472	1.327357	0.662635	15313.113281
10955.244407	1.291062	0.662635	16520.255859
10955.245479	1.251826	0.662635	17862.212891
10955.246416	1.218369	0.662635	19003.824219
10955.247289	0.904742	0.662635	19793.664062
10955.248335	0.100825	0.662635	19899.126953
10955.249359	0.090696	0.662635	19992.000000
10955.250246	0.090714	0.662635	20072.462891
10955.251203	0.090839	0.662635	20159.394531
10955.252260	0.090762	0.662635	20255.330078
10955.253184	0.090670	0.662635	20339.109375
10955.254046	0.090707	0.662635	20417.298828
10955.255122	0.090809	0.662635	20515.009766
10955.256103	0.090667	0.662635	20603.953125
10955.256991	0.090663	0.662635	20684.460937
10956.284344	1.184319	0.731020	497.413879
10956.285325	1.707865	0.731020	2172.829346
10956.286277	1.685585	0.731020	3777.505859
10956.287191	1.638365	0.731020	5274.971680
10956.288068	1.593292	0.731020	6672.289062
10956.289100	1.543623	0.731020	8265.307617
10956.289998	1.500630	0.731020	9612.873047
10956.290879	1.460504	0.731020	10899.577148
10956.291803	1.420887	0.731020	12212.477539
10956.292824	1.378861	0.731020	13620.294922
10956.293740	1.342277	0.731020	14849.820312
10956.294600	1.307812	0.731020	15974.539062
10956.295685	1.267943	0.731020	17350.257812
10956.296581	1.234636	0.731020	18456.492187
10956.297461	1.203702	0.731020	19515.750000
10956.298332	0.398697	0.731020	19863.015625
10956.299416	0.090579	0.731020	19961.203125
10956.300311	0.090667	0.731020	20042.349609
10956.301187	0.090641	0.731020	20121.751953
10956.302171	0.090850	0.731020	20211.148437
10956.303111	0.090663	0.731020	20296.371094
10956.304037	0.090754	0.731020	20380.410156
10956.304900	0.090729	0.731020	20458.708984
10956.305934	0.090696	0.731020	20552.488281
10956.306819	0.090688	0.731020	20632.748047
10956.307682	0.090685	0.731020	20711.009766
10957.272555	1.252676	0.667783	584.999573
10957.273437	1.711875	0.667783	2094.873291
10957.274300	1.691221	0.667783	3554.396729
10957.275398	1.636417	0.667783	5351.182617
10957.276324	1.588531	0.667783	6822.163086
10957.277196	1.545747	0.667783	8170.054687
10957.278194	1.500157	0.667783	9667.211914
10957.279204	1.453561	0.667783	11135.308594
10957.280084	1.415405	0.667783	12380.865234
10957.280956	1.378777	0.667783	13583.158203
10957.282021	1.336630	0.667783	15006.668945
10957.282953	1.300078	0.667783	16218.341797
10957.283839	1.267123	0.667783	17341.011719
10957.284794	1.233135	0.667783	18518.656250
10957.285826	1.131702	0.667783	19686.572266
10957.286722	0.197596	0.667783	19863.619141
10957.287581	0.090685	0.667783	19941.517578
10957.288651	0.090835	0.667783	20038.710937
10957.289583	0.090692	0.667783	20123.236328
10957.290458	0.090721	0.667783	20202.617187
10957.291409	0.090850	0.667783	20289.015625
10957.292435	0.090681	0.667783	20382.054687
10957.293309	0.090732	0.667783	20461.355469
10957.294163	0.090765	0.667783	20538.869141
10957.295193	0.090864	0.667783	20632.458984
10958.321227	1.332085	0.753498	745.967529
10958.322278	1.713794	0.753498	2547.165039
10958.323158	1.678246	0.753498	4024.021484
10958.324106	1.629287	0.753498	5568.585937
10958.325179	1.575289	0.753498	7258.871582
10958.326116	1.530029	0.753498	8692.508789
10958.326977	1.488442	0.753498	9974.057617
10958.328028	1.442003	0.753498	11489.602539
10958.329066	1.398809	0.753498	12941.566406
10958.329961	1.362023	0.753498	14160.577148
10958.330927	1.323918	0.753498	15439.482422
10958.331992	1.282840	0.753498	16805.707031
10958.332915	1.249102	0.753498	17958.626953
10958.333789	1.216941	0.753498	19022.232422
10958.334888	0.641221	0.753498	19726.933594
10958.335878	0.091897	0.753498	19817.912109
10958.336769	0.090681	0.753498	19898.708984
10958.337757	0.090721	0.753498	19988.341797
10958.338806	0.090699	0.753498	20083.486328
10958.339702	0.090667	0.753498	20164.722656
10958.340563	0.090674	0.753498	20242.792969
10958.341666	0.090828	0.753498	20342.976562
10958.342624	0.090615	0.753498	20429.785156
10958.343491	0.090601	0.753498	20508.335937
10958.344599	0.090795	0.753498	20608.935547
10959.312350	1.238844	0.665406	569.868225
10959.313242	1.711666	0.665406	2096.674561
10959.314225	1.686537	0.665406	3754.540283
10959.315288	1.631547	0.665406	5488.874512
10959.316205	1.584503	0.665406	6941.863770
10959.317069	1.540635	0.665406	8272.972656
10959.318192	1.489611	0.665406	9945.805664
10959.319172	1.446277	0.665406	11363.157227
10959.320040	1.409333	0.665406	12586.458984
10959.321132	1.364821	0.665406	14076.842773
10959.322165	1.323798	0.665406	15444.326172
10959.323055	1.288791	0.665406	16591.351562
10959.323987	1.254620	0.665406	17760.658203
10959.325044	1.216985	0.665406	19047.011719
10959.325988	0.799955	0.665406	19802.169922
10959.326849	0.102697	0.665406	19890.591797
10959.327895	0.090820	0.665406	19985.589844
10959.328908	0.090703	0.665406	20077.472656
10959.329786	0.090688	0.665406	20157.097656
10959.330748	0.090696	0.665406	20244.347656
10959.331806	0.090740	0.665406	20340.349609
10959.332730	0.090615	0.665406	20424.078125
10959.333586	0.090685	0.665406	20501.705078
10959.334629	0.090798	0.665406	20596.408203
10959.335638	0.090688	0.665406	20687.912109
10960.356792	1.188120	0.750867	502.574799
10960.357855	1.712076	0.750867	2322.511963
10960.358863	1.678403	0.750867	4014.342285
10960.359746	1.632286	0.750867	5455.651367
10960.360744	1.582716	0.750867	7035.202148
10960.361792	1.531425	0.750867	8640.134766
10960.362712	1.487802	0.750867	10008.912109
10960.363573	1.448295	0.750867	11255.893555
10960.364658	1.403950	0.750867	12779.179687
10960.365655	1.362609	0.750867	14137.700195
10960.366538	1.327317	0.750867	15309.720703
10960.367525	1.289227	0.750867	16582.187500
10960.368581	1.250640	0.750867	17902.863281
10960.369491	1.217864	0.750867	19011.119141
10960.370362	0.840260	0.750867	19742.986328
10960.371481	0.096581	0.750867	19851.060547
10960.372442	0.090634	0.750867	19938.160156
10960.373311	0.090677	0.750867	20016.958984
10960.374339	0.090791	0.750867	20110.292969
10960.375385	0.090751	0.750867	20205.218750
10960.376272	0.090670	0.750867	20285.642578
10960.377164	0.090736	0.750867	20366.580078
10960.378239	0.090787	0.750867	20464.175781
10960.379198	0.090608	0.750867	20551.068359
10960.380060	0.090652	0.750867	20629.210937
10961.355264	1.249570	0.665120	616.038147
10961.356141	1.712567	0.665120	2117.959473
10961.357043	1.687808	0.665120	3640.361816
10961.358148	1.631909	0.665120	5443.621582
10961.359102	1.583492	0.665120	6954.273437
10961.359975	1.541228	0.665120	8299.765625
10961.361006	1.492643	0.665120	9838.680664
10961.362041	1.446738	0.665120	11336.054687
10961.362933	1.408839	0.665120	12592.739258
10961.363906	1.369435	0.665120	13925.199219
10961.364972	1.326339	0.665120	15339.077148
10961.365903	1.290172	0.665120	16540.226562
10961.366774	1.257290	0.665120	17635.326172
10961.367861	1.219336	0.665120	18960.744141
10961.368865	0.796853	0.665120	19760.785156
10961.369754	0.100188	0.665120	19849.851562
10961.370740	0.090828	0.665120	19939.408203
10961.371772	0.090710	0.665120	20033.021484
10961.372673	0.090685	0.665120	20114.728516
10961.373534	0.090769	0.665120	20192.880859
10961.374638	0.090718	0.665120	20293.033203
10961.375622	0.090707	0.665120	20382.289062
10961.376499	0.090645	0.665120	20461.785156
10961.377500	0.090831	0.665120	20552.707031
10961.378552	0.090714	0.665120	20648.138672
10962.393525	1.207408	0.713319	509.526367
10962.394650	1.712772	0.713319	2436.395020
10962.395609	1.677982	0.713319	4045.580078
10962.396536	1.629877	0.713319	5556.475586
10962.397419	1.584635	0.713319	6955.708008
10962.398300	1.540660	0.713319	8313.029297
10962.399287	1.495115	0.713319	9788.708008
10962.400192	1.454008	0.713319	11104.584961
10962.401070	1.415801	0.713319	12347.658203
10962.402103	1.373968	0.713319	13766.967773
10962.403000	1.337487	0.713319	14966.693359
10962.403924	1.302056	0.713319	16169.792969
10962.404792	1.268020	0.713319	17270.433594
10962.405808	1.232710	0.713319	18522.867187
10962.406744	1.189907	0.713319	19636.621094
10962.407613	0.291218	0.713319	19889.689453
10962.408639	0.090630	0.713319	19982.675781
10962.409516	0.090659	0.713319	20062.183594
10962.410436	0.090732	0.713319	20145.658203
10962.411294	0.090718	0.713319	20223.494141
10962.412271	0.090754	0.713319	20312.162109
10962.413196	0.090699	0.713319	20396.058594
10962.414083	0.090710	0.713319	20476.519531
10962.414959	0.090685	0.713319	20555.958984
10962.415940	0.090623	0.713319	20644.859375
10963.397055	1.193075	0.653088	510.636078
10963.398063	1.709172	0.653088	2233.481689
10963.399000	1.684460	0.653088	3811.821045
10963.399933	1.636315	0.653088	5338.502930
10963.400798	1.590959	0.653088	6714.682617
10963.401861	1.540657	0.653088	8352.400391
10963.402743	1.498473	0.653088	9674.053711
10963.403620	1.458545	0.653088	10953.197266
10963.404595	1.417855	0.653088	12335.606445
10963.405553	1.377455	0.653088	13655.208008
10963.406467	1.340896	0.653088	14880.787109
10963.407345	1.306194	0.653088	16027.625000
10963.408400	1.267507	0.653088	17364.845703
10963.409291	1.234647	0.653088	18464.916016
10963.410165	1.203695	0.653088	19516.945312
10963.411095	0.397709	0.653088	19886.814453
10963.412104	0.090601	0.653088	19978.230469
10963.412988	0.090740	0.653088	20058.445312
10963.413855	0.090663	0.653088	20137.050781
10963.414849	0.090703	0.653088	20227.208984
10963.415755	0.090736	0.653088	20309.416016
10963.416675	0.090659	0.653088	20392.822266
10963.417535	0.090754	0.653088	20470.871094
10963.418572	0.090699	0.653088	20564.925781
10963.419467	0.090703	0.653088	20646.105469
10963.420342	0.090721	0.653088	20725.486328
10964.428292	1.255441	0.661434	623.954041
10964.429170	1.712553	0.661434	2127.575195
10964.430033	1.691290	0.661434	3587.158691
10964.431091	1.636875	0.661434	5318.972656
10964.432067	1.587158	0.661434	6868.039062
10964.432948	1.543894	0.661434	8228.209961
10964.433853	1.500183	0.661434	9585.875977
10964.434949	1.452590	0.661434	11177.915039
10964.435831	1.414274	0.661434	12425.304687
10964.436691	1.378641	0.661434	13610.936523
10964.437713	1.337212	0.661434	14977.567383
10964.438690	1.299207	0.661434	16246.892578
10964.439574	1.266163	0.661434	17366.181641
10964.440456	1.233343	0.661434	18453.990234
10964.441562	1.116196	0.661434	19688.503906
10964.442461	0.186852	0.661434	19856.484375
10964.443323	0.090535	0.661434	19934.525391
10964.444383	0.090740	0.661434	20030.708984
10964.445353	0.090677	0.661434	20118.666016
10964.446226	0.090765	0.661434	20197.904297
10964.447106	0.090773	0.661434	20277.785156
10964.448200	0.090758	0.661434	20377.074219
10964.449088	0.090601	0.661434	20457.527344
10964.449946	0.090685	0.661434	20535.333984
10964.451037	0.090703	0.661434	20634.291016
10965.439928	1.183462	0.624781	499.420929
10965.440955	1.711058	0.624781	2256.677734
10965.441940	1.681758	0.624781	3913.209229
10965.442821	1.635458	0.624781	5354.047363
10965.443715	1.588623	0.624781	6774.276367
10965.444815	1.537526	0.624781	8465.554687
10965.445699	1.494895	0.624781	9787.041992
10965.446563	1.455699	0.624781	11044.766602
10965.447637	1.410758	0.624781	12559.920898
10965.448601	1.370797	0.624781	13881.369141
10965.449472	1.335630	0.624781	15044.703125
10965.450348	1.299822	0.624781	16183.346680
10965.451457	1.260410	0.624781	17581.140625
10965.452360	1.227477	0.624781	18689.552734
10965.453228	1.071302	0.624781	19619.443359
10965.454350	0.136454	0.624781	19772.544922
10965.455312	0.090696	0.624781	19859.794922
10965.456188	0.090688	0.624781	19939.238281
10965.457094	0.090725	0.624781	20021.435547
10965.458168	0.090710	0.624781	20118.859375
10965.459054	0.090729	0.624781	20199.244141
10965.459931	0.090798	0.624781	20278.875000
10965.461027	0.090839	0.624781	20378.433594
10965.461974	0.090703	0.624781	20464.330078
10965.462834	0.090714	0.624781	20542.343750
10966.467106	1.296508	0.643436	668.997925
10966.468141	1.714047	0.643436	2443.036133
10966.469036	1.680220	0.643436	3946.833008
10966.469973	1.631389	0.643436	5475.444336
10966.471053	1.576926	0.643436	7178.524414
10966.471995	1.531846	0.643436	8621.523437
10966.472868	1.489398	0.643436	9921.767578
10966.473942	1.442531	0.643436	11471.044922
10966.474954	1.400237	0.643436	12888.083984
10966.475853	1.363231	0.643436	14113.628906
10966.476819	1.325314	0.643436	15393.881836
10966.477891	1.284053	0.643436	16770.386719
10966.478813	1.249874	0.643436	17922.771484
10966.479679	1.217963	0.643436	18977.527344
10966.480779	0.675791	0.643436	19720.898437
10966.481748	0.092666	0.643436	19810.691406
10966.482625	0.090608	0.643436	19890.154297
10966.483635	0.090780	0.643436	19981.841797
10966.484675	0.090674	0.643436	20076.142578
10966.485563	0.090656	0.643436	20156.644531
10966.486420	0.090663	0.643436	20234.341797
10966.487530	0.090758	0.643436	20335.083984
10966.488490	0.090641	0.643436	20422.099609
10966.489347	0.090659	0.643436	20499.794922
10966.490395	0.090773	0.643436	20594.923828
10967.477771	1.268672	0.656218	636.873291
10967.478677	1.713596	0.656218	2189.391357
10967.479540	1.688115	0.656218	3646.234863
10967.480635	1.632554	0.656218	5433.880859
10967.481625	1.582035	0.656218	7000.095703
10967.482524	1.538624	0.656218	8383.318359
10967.483529	1.492053	0.656218	9882.832031
10967.484595	1.445035	0.656218	11423.240234
10967.485491	1.406177	0.656218	12683.174805
10967.486373	1.368450	0.656218	13890.147461
10967.487465	1.326379	0.656218	15338.553711
10967.488425	1.289458	0.656218	16576.433594
10967.489290	1.257491	0.656218	17664.164062
10967.490326	1.220629	0.656218	18928.734375
10967.491368	0.794949	0.656218	19757.070312
10967.492250	0.101125	0.656218	19846.263672
10967.493178	0.090765	0.656218	19930.494141
10967.494231	0.090743	0.656218	20026.046875
10967.495164	0.090659	0.656218	20110.632812
10967.496023	0.090725	0.656218	20188.566406
10967.497046	0.090886	0.656218	20281.542969
10967.498074	0.090685	0.656218	20374.767578
10967.498956	0.090736	0.656218	20454.796875
10967.499905	0.090809	0.656218	20540.974609
10967.500969	0.090765	0.656218	20637.548828
10968.505788	1.188988	0.700590	506.508911
10968.506831	1.709875	0.700590	2289.909180
10968.507875	1.678173	0.700590	4041.921387
10968.508760	1.630917	0.700590	5485.282715
10968.509662	1.583990	0.700590	6914.041992
10968.510744	1.532263	0.700590	8571.951172
10968.511703	1.487351	0.700590	9998.320312
10968.512576	1.448610	0.700590	11262.957031
10968.513615	1.404756	0.700590	12722.498047
10968.514655	1.362180	0.700590	14139.165039
10968.515547	1.326610	0.700590	15322.500977
10968.516510	1.290055	0.700590	16564.824219
10968.517579	1.250098	0.700590	17901.177734
10968.518515	1.216985	0.700590	19040.275391
10968.519389	0.866492	0.700590	19797.589844
10968.520450	0.097365	0.700590	19900.894531
10968.521444	0.090641	0.700590	19990.992187
10968.522335	0.090670	0.700590	20071.779297
10968.523306	0.090883	0.700590	20160.025391
10968.524350	0.090743	0.700590	20254.761719
10968.525256	0.090681	0.700590	20336.917969
10968.526117	0.090721	0.700590	20415.029297
10968.527205	0.090835	0.700590	20513.857422
10968.528199	0.090612	0.700590	20603.925781
10968.529075	0.090626	0.700590	20683.314453
10969.510429	1.282291	0.694245	657.815430
10969.511439	1.714200	0.694245	2389.157715
10969.512317	1.682428	0.694245	3866.329590
10969.513314	1.630485	0.694245	5491.922852
10969.514374	1.577183	0.694245	7163.736328
10969.515272	1.533461	0.694245	8540.784180
10969.516139	1.490867	0.694245	9833.365234
10969.517253	1.442926	0.694245	11440.785156
10969.518223	1.402716	0.694245	12801.419922
10969.519094	1.366501	0.694245	13991.642578
10969.520116	1.325815	0.694245	15346.625977
10969.521161	1.285789	0.694245	16690.275391
10969.522050	1.252885	0.694245	17804.089844
10969.522980	1.219940	0.694245	18938.634766
10969.524053	0.732286	0.694245	19724.378906
10969.525001	0.094805	0.694245	19814.253906
10969.525866	0.090820	0.694245	19892.812500
10969.526945	0.090824	0.694245	19990.812500
10969.527937	0.090656	0.694245	20080.742187
10969.528820	0.090736	0.694245	20160.861328
10969.529788	0.090780	0.694245	20248.736328
10969.530842	0.090729	0.694245	20344.365234
10969.531761	0.090736	0.694245	20427.751953
10969.532618	0.090663	0.694245	20505.449219
10969.533701	0.090692	0.694245	20603.667969
10970.549801	1.284489	0.709069	688.485840
10970.550869	1.713091	0.709069	2518.066895
10970.551784	1.676594	0.709069	4052.150635
10970.552652	1.629555	0.709069	5466.604004
10970.553769	1.575026	0.709069	7225.907715
10970.554735	1.528744	0.709069	8702.674805
10970.555597	1.487930	0.709069	9985.270508
10970.556672	1.440718	0.709069	11534.041992
10970.557719	1.397369	0.709069	12997.087891
10970.558607	1.360243	0.709069	14204.983398
10970.559541	1.323292	0.709069	15440.938477
10970.560614	1.282493	0.709069	16817.052734
10970.561554	1.247695	0.709069	17989.886719
10970.562423	1.216542	0.709069	19047.062500
10970.563490	0.653767	0.709069	19744.632812
10970.564499	0.092285	0.709069	19837.748047
10970.565367	0.090634	0.709069	19916.417969
10970.566327	0.090780	0.709069	20003.566406
10970.567380	0.090736	0.709069	20099.111328
10970.568300	0.090677	0.709069	20182.535156
10970.569168	0.090725	0.709069	20261.285156
10970.570230	0.090732	0.709069	20357.642578
10970.571235	0.090685	0.709069	20448.781250
10970.572123	0.090637	0.709069	20529.267578
10970.573091	0.090725	0.709069	20617.089844
10971.547161	1.275659	0.672259	646.759216
10971.548105	1.714259	0.672259	2265.019775
10971.548970	1.686548	0.672259	3723.883789
10971.550027	1.632634	0.672259	5449.578125
10971.551058	1.580570	0.672259	7079.145996
10971.551933	1.537024	0.672259	8424.041992
10971.552843	1.494305	0.672259	9783.860352
10971.553723	1.454377	0.672259	11063.712891
10971.554703	1.413494	0.672259	12448.936523
10971.555629	1.375283	0.672259	13722.449219
10971.556520	1.339255	0.672259	14915.725586
10971.557404	1.303942	0.672259	16068.410156
10971.558385	1.267749	0.672259	17312.072266
10971.559320	1.234450	0.672259	18466.283203
10971.560187	1.193269	0.672259	19500.847656
10971.561218	0.256827	0.672259	19765.636719
10971.562104	0.090630	0.672259	19845.935547
10971.563011	0.090667	0.672259	19928.169922
10971.563883	0.090703	0.672259	20007.263672
10971.564865	0.090707	0.672259	20096.337891
10971.565792	0.090732	0.672259	20180.447266
10971.566663	0.090718	0.672259	20259.462891
10971.567660	0.090685	0.672259	20349.875000
10971.568558	0.090652	0.672259	20431.281250
10971.569474	0.090619	0.672259	20514.289062
10972.589489	1.191855	0.688710	499.387421
10972.590585	1.713083	0.688710	2376.926758
10972.591515	1.680747	0.688710	3940.021484
10972.592395	1.635022	0.688710	5378.840820
10972.593380	1.585312	0.688710	6940.373535
10972.594383	1.536010	0.688710	8480.991211
10972.595284	1.494005	0.688710	9827.089844
10972.596149	1.453671	0.688710	11084.514648
10972.597242	1.409114	0.688710	12624.675781
10972.598157	1.370746	0.688710	13878.908203
10972.599028	1.335890	0.688710	15042.468750
10972.600029	1.297969	0.688710	16341.735352
10972.601032	1.259824	0.688710	17605.339844
10972.601909	1.227960	0.688710	18682.261719
10972.602780	1.091781	0.688710	19633.203125
10972.603867	0.146257	0.688710	19792.185547
10972.604789	0.090648	0.688710	19875.763672
10972.605664	0.090718	0.688710	19955.142578
10972.606635	0.090824	0.688710	20043.332031
10972.607655	0.090743	0.688710	20135.890625
10972.608539	0.090747	0.688710	20216.111328
10972.609399	0.090677	0.688710	20294.093750
10972.610474	0.090806	0.688710	20391.708984
10972.611401	0.090740	0.688710	20475.824219
10972.612268	0.090762	0.688710	20554.513672
10973.584837	1.204537	0.733711	521.564697
10973.585698	1.707795	0.733711	1991.976562
10973.586820	1.681970	0.733711	3879.147217
10973.587783	1.632063	0.733711	5450.823730
10973.588648	1.587671	0.733711	6824.159180
10973.589700	1.537156	0.733711	8441.247070
10973.590736	1.488688	0.733711	9983.527344
10973.591617	1.448818	0.733711	11259.936523
10973.592547	1.409575	0.733711	12570.841797
10973.593615	1.365817	0.733711	14029.534180
10973.594562	1.328240	0.733711	15287.376953
10973.595424	1.294094	0.733711	16402.886719
10973.596457	1.256034	0.733711	17700.369141
10973.597497	1.218732	0.733711	18967.849609
10973.598389	0.918321	0.733711	19786.992187
10973.599351	0.116071	0.733711	19898.652344
10973.600407	0.090718	0.733711	19994.451172
10973.601332	0.090718	0.733711	20078.365234
10973.602198	0.090729	0.733711	20156.935547
10973.603261	0.090835	0.733711	20253.492187
10973.604277	0.090692	0.733711	20345.634766
10973.605164	0.090688	0.733711	20426.076172
10973.606130	0.090798	0.733711	20513.787109
10973.607184	0.090729	0.733711	20609.416016
10973.608099	0.090714	0.733711	20692.419922
10974.623244	1.270887	0.748563	631.631042
10974.624235	1.713944	0.748563	2330.149658
10974.625126	1.683409	0.748563	3830.067383
10974.626120	1.632074	0.748563	5452.348633
10974.627169	1.578893	0.748563	7108.607422
10974.628074	1.534816	0.748563	8497.615234
10974.628937	1.492610	0.748563	9785.737305
10974.630047	1.444600	0.748563	11389.243164
10974.631006	1.404532	0.748563	12736.189453
10974.631878	1.368358	0.748563	13929.397461
10974.632942	1.326486	0.748563	15340.778320
10974.633972	1.286700	0.748563	16666.080078
10974.634869	1.253518	0.748563	17790.486328
10974.635812	1.220024	0.748563	18940.968750
10974.636882	0.734242	0.748563	19726.607422
10974.637804	0.095969	0.748563	19815.091797
10974.638662	0.090685	0.748563	19892.898437
10974.639727	0.090861	0.748563	19989.664062
10974.640735	0.090597	0.748563	20080.986328
10974.641610	0.090688	0.748563	20160.337891
10974.642587	0.090721	0.748563	20248.972656
10974.643648	0.090747	0.748563	20345.255859
10974.644565	0.090659	0.748563	20428.390625
10974.645423	0.090740	0.748563	20506.246094
10974.646463	0.090740	0.748563	20600.615234
10975.627716	1.192855	0.724176	515.313477
10975.628585	1.708638	0.724176	2000.119629
10975.629648	1.684471	0.724176	3790.712891
10975.630659	1.631898	0.724176	5440.562012
10975.631556	1.586191	0.724176	6863.375977
10975.632517	1.540327	0.724176	8343.630859
10975.633585	1.489611	0.724176	9934.535156
10975.634511	1.448130	0.724176	11275.503906
10975.635377	1.410509	0.724176	12497.004883
10975.636468	1.366692	0.724176	13988.065430
10975.637466	1.326647	0.724176	15312.058594
10975.638358	1.292347	0.724176	16464.832031
10975.639369	1.255353	0.724176	17733.994141
10975.640419	1.218135	0.724176	19013.035156
10975.641311	0.880217	0.724176	19798.189453
10975.642168	0.111669	0.724176	19893.888672
10975.643279	0.090809	0.724176	19994.777344
10975.644235	0.090696	0.724176	20081.482422
10975.645091	0.090667	0.724176	20159.093750
10975.646159	0.090791	0.724176	20256.058594
10975.647199	0.090703	0.724176	20350.390625
10975.648068	0.090652	0.724176	20429.167969
10975.648988	0.090725	0.724176	20512.634766
10975.650075	0.090806	0.724176	20611.339844
10975.651014	0.090732	0.724176	20696.537109
10976.656911	1.261908	0.718838	642.311157
10976.657798	1.712937	0.718838	2161.686279
10976.658667	1.687445	0.718838	3628.076172
10976.659759	1.632466	0.718838	5410.728516
10976.660758	1.581163	0.718838	6990.310547
10976.661660	1.538525	0.718838	8378.060547
10976.662653	1.491947	0.718838	9859.564453
10976.663703	1.445530	0.718838	11377.371094
10976.664599	1.407286	0.718838	12638.299805
10976.665487	1.369105	0.718838	13854.065430
10976.666608	1.325841	0.718838	15340.333008
10976.667562	1.289227	0.718838	16570.255859
10976.668433	1.256726	0.718838	17664.865234
10976.669499	1.218915	0.718838	18964.228516
10976.670537	0.751538	0.718838	19744.324219
10976.671426	0.097394	0.718838	19830.908203
10976.672391	0.090736	0.718838	19918.468750
10976.673448	0.090718	0.718838	20014.357422
10976.674374	0.090626	0.718838	20098.277344
10976.675236	0.090710	0.718838	20176.470703
10976.676302	0.090831	0.718838	20273.296875
10976.677300	0.090630	0.718838	20363.746094
10976.678175	0.090703	0.718838	20443.111328
10976.679158	0.090758	0.718838	20532.326172
10976.680207	0.090736	0.718838	20627.507812
10977.669665	1.290465	0.712896	662.008545
10977.670677	1.714131	0.712896	2396.708984
10977.671549	1.682274	0.712896	3863.651855
10977.672547	1.630448	0.712896	5490.838867
10977.673613	1.577120	0.712896	7172.049316
10977.674504	1.533395	0.712896	8538.303711
10977.675411	1.490072	0.712896	9889.798828
10977.676494	1.442677	0.712896	11452.217773
10977.677443	1.402994	0.712896	12783.659180
10977.678316	1.366835	0.712896	13976.906250
10977.679346	1.325782	0.712896	15342.461914
10977.680381	1.286342	0.712896	16673.826172
10977.681277	1.253016	0.712896	17796.529297
10977.682232	1.219797	0.712896	18961.435547
10977.683296	0.725237	0.712896	19733.087891
10977.684236	0.094816	0.712896	19822.214844
10977.685100	0.090703	0.712896	19900.582031
10977.686173	0.090835	0.712896	19998.048828
10977.687162	0.090630	0.712896	20087.681641
10977.688048	0.090637	0.712896	20167.986328
10977.689005	0.090765	0.712896	20254.849609
10977.690047	0.090751	0.712896	20349.412109
10977.690962	0.090677	0.712896	20432.382812
10977.691821	0.090707	0.712896	20510.300781
10977.692902	0.090879	0.712896	20608.541016
10978.694590	1.189764	0.754183	504.460083
10978.695582	1.706968	0.754183	2197.772217
10978.696653	1.678872	0.754183	3995.844238
10978.697556	1.631023	0.754183	5468.658203
10978.698421	1.585822	0.754183	6840.393555
10978.699478	1.535273	0.754183	8463.177734
10978.700484	1.487966	0.754183	9960.072266
10978.701380	1.448496	0.754183	11257.924805
10978.702375	1.406781	0.754183	12657.671875
10978.703441	1.363044	0.754183	14110.677734
10978.704337	1.327061	0.754183	15299.723633
10978.705203	1.291633	0.754183	16418.277344
10978.706326	1.251947	0.754183	17824.214844
10978.707305	1.217611	0.754183	19016.255859
10978.708183	0.889687	0.754183	19797.402344
10978.709214	0.101301	0.754183	19901.843750
10978.710244	0.090762	0.754183	19995.328125
10978.711135	0.090751	0.754183	20076.187500
10978.712065	0.090846	0.754183	20160.673828
10978.713126	0.090703	0.754183	20256.910156
10978.714071	0.090670	0.754183	20342.593750
10978.714933	0.090736	0.754183	20420.808594
10978.715997	0.090861	0.754183	20517.484375
10978.717007	0.090740	0.754183	20609.130859
10978.717882	0.090725	0.754183	20688.515625
10979.703324	1.278179	0.772612	656.983826
10979.704218	1.713160	0.772612	2188.549316
10979.705079	1.686379	0.772612	3640.521973
10979.706190	1.630598	0.772612	5452.116211
10979.707166	1.581727	0.772612	6995.881836
10979.708041	1.539038	0.772612	8342.540039
10979.709070	1.490724	0.772612	9876.495117
10979.710108	1.445017	0.772612	11376.422852
10979.711002	1.406865	0.772612	12634.160156
10979.711917	1.368574	0.772612	13886.405273
10979.713019	1.325303	0.772612	15346.888672
10979.713959	1.288909	0.772612	16558.462891
10979.714829	1.256528	0.772612	17651.642578
10979.715901	1.218863	0.772612	18958.263672
10979.716923	0.769984	0.772612	19745.187500
10979.717810	0.098441	0.772612	19832.503906
10979.718772	0.090762	0.772612	19919.816406
10979.719829	0.090721	0.772612	20015.708984
10979.720766	0.090681	0.772612	20100.677734
10979.721628	0.090776	0.772612	20178.927734
10979.722703	0.090806	0.772612	20276.542969
10979.723706	0.090663	0.772612	20367.478516
10979.724578	0.090634	0.772612	20446.511719
10979.725574	0.090846	0.772612	20536.994141
10979.726617	0.090791	0.772612	20631.689453
10980.737479	1.204508	0.779936	521.551941
10980.738345	1.707803	0.779936	2000.509033
10980.739452	1.682281	0.779936	3862.794678
10980.740417	1.632209	0.779936	5437.876953
10980.741283	1.587924	0.779936	6813.018555
10980.742330	1.537720	0.779936	8423.010742
10980.743375	1.488439	0.779936	9978.429687
10980.744258	1.448697	0.779936	11257.629883
10980.745195	1.409136	0.779936	12577.990234
10980.746283	1.364762	0.779936	14062.851562
10980.747212	1.327350	0.779936	15295.958984
10980.748074	1.293530	0.779936	16410.982422
10980.749117	1.255038	0.779936	17719.986328
10980.750147	1.218453	0.779936	18974.992187
10980.751039	0.909305	0.779936	19786.091797
10980.752011	0.114287	0.779936	19897.179687
10980.753072	0.090725	0.779936	19993.439453
10980.753992	0.090710	0.779936	20076.892578
10980.754858	0.090721	0.779936	20155.457031
10980.755935	0.090787	0.779936	20253.234375
10980.756925	0.090659	0.779936	20342.986328
10980.757807	0.090648	0.779936	20422.937500
10980.758790	0.090758	0.779936	20512.152344
10980.759839	0.090718	0.779936	20607.314453
10980.760740	0.090656	0.779936	20688.994141
10981.738937	1.194108	0.722858	502.719330
10981.740005	1.713248	0.722858	2332.468506
10981.740878	1.684629	0.722858	3803.149414
10981.741746	1.639336	0.722858	5226.092773
10981.742711	1.590685	0.722858	6761.103516
10981.743672	1.543074	0.722858	8243.997070
10981.744592	1.499788	0.722858	9623.801758
10981.745476	1.459640	0.722858	10914.123047
10981.746511	1.416574	0.722858	12380.276367
10981.747412	1.378528	0.722858	13622.330078
10981.748288	1.343013	0.722858	14798.809570
10981.749178	1.306948	0.722858	15961.993164
10981.750222	1.268756	0.722858	17286.574219
10981.751112	1.236698	0.722858	18387.236328
10981.751988	1.206028	0.722858	19443.716797
10981.753017	0.389055	0.722858	19844.054687
10981.753918	0.090743	0.722858	19925.814453
10981.754822	0.090769	0.722858	20007.869141
10981.755698	0.090842	0.722858	20087.447266
10981.756720	0.090809	0.722858	20180.253906
10981.757607	0.090721	0.722858	20260.724609
10981.758480	0.090732	0.722858	20339.933594
10981.759453	0.090872	0.722858	20428.351562
10981.760416	0.090732	0.722858	20515.726562
10981.761340	0.090692	0.722858	20599.525391
10981.762201	0.090725	0.722858	20677.640625
10982.779409	1.274073	0.728014	643.407104
10982.780340	1.713853	0.728014	2239.003906
10982.781219	1.686687	0.728014	3721.601807
10982.782177	1.637651	0.728014	5290.471680
10982.783225	1.584254	0.728014	6950.770020
10982.784118	1.540704	0.728014	8326.619141
10982.784982	1.498890	0.728014	9621.660156
10982.786048	1.451689	0.728014	11169.161133
10982.786998	1.411435	0.728014	12510.025391
10982.787874	1.374983	0.728014	13714.510742
10982.788837	1.337216	0.728014	15002.249023
10982.789874	1.296401	0.728014	16346.617187
10982.790763	1.263135	0.728014	17469.544922
10982.791625	1.231487	0.728014	18531.085937
10982.792667	1.073346	0.728014	19649.511719
10982.793616	0.160605	0.728014	19801.925781
10982.794486	0.090630	0.728014	19880.773437
10982.795421	0.090670	0.728014	19965.550781
10982.796479	0.090773	0.728014	20061.587891
10982.797369	0.090659	0.728014	20142.275391
10982.798233	0.090641	0.728014	20220.589844
10982.799275	0.090824	0.728014	20315.228516
10982.800245	0.090663	0.728014	20403.171875
10982.801120	0.090667	0.728014	20482.505859
10982.802013	0.090831	0.728014	20563.619141
10983.776732	1.238287	0.696714	553.514465
10983.777610	1.710260	0.696714	2055.122803
10983.778474	1.690345	0.696714	3515.581055
10983.779590	1.636018	0.696714	5341.377441
10983.780492	1.589279	0.696714	6774.906738
10983.781357	1.546710	0.696714	8112.811035
10983.782377	1.499297	0.696714	9642.093750
10983.783384	1.453502	0.696714	11105.770508
10983.784262	1.415618	0.696714	12348.682617
10983.785130	1.378433	0.696714	13545.162109
10983.786228	1.336047	0.696714	15012.142578
10983.787143	1.299800	0.696714	16201.458984
10983.788023	1.267225	0.696714	17316.617187
10983.789033	1.231022	0.696714	18559.949219
10983.790039	1.120258	0.696714	19686.927734
10983.790937	0.183087	0.696714	19851.339844
10983.791802	0.090659	0.696714	19929.759766
10983.792894	0.090776	0.696714	20028.886719
10983.793794	0.090685	0.696714	20110.503906
10983.794662	0.090670	0.696714	20189.205078
10983.795666	0.090736	0.696714	20280.304687
10983.796659	0.090674	0.696714	20370.343750
10983.797543	0.090718	0.696714	20450.539062
10983.798400	0.090699	0.696714	20528.267578
10983.799482	0.090732	0.696714	20626.439453
10984.818180	1.237723	0.728707	616.386230
10984.819255	1.712377	0.728707	2457.191162
10984.820179	1.677341	0.728707	4007.054687
10984.821057	1.630847	0.728707	5438.938477
10984.822118	1.577637	0.728707	7112.811035
10984.823128	1.529128	0.728707	8657.230469
10984.824026	1.487003	0.728707	9992.559570
10984.825016	1.444025	0.728707	11422.143555
10984.826062	1.399724	0.728707	12886.254883
10984.826972	1.362008	0.728707	14125.682617
10984.827837	1.326486	0.728707	15273.092773
10984.828938	1.285305	0.728707	16688.212891
10984.829939	1.248424	0.728707	17937.884766
10984.830838	1.216615	0.728707	19031.621094
10984.831835	0.719517	0.728707	19748.978516
10984.832885	0.093252	0.728707	19846.892578
10984.833773	0.090714	0.728707	19927.447266
10984.834661	0.090780	0.728707	20008.060547
10984.835748	0.090828	0.728707	20106.791016
10984.836693	0.090718	0.728707	20192.519531
10984.837555	0.090718	0.728707	20270.718750
10984.838598	0.090787	0.728707	20365.410156
10984.839627	0.090674	0.728707	20458.712891
10984.840509	0.090677	0.728707	20538.691406
10984.841440	0.090729	0.728707	20623.160156
10985.813445	1.203567	0.742819	523.551636
10985.814311	1.707960	0.742819	2002.645142
10985.815400	1.682842	0.742819	3835.259766
10985.816398	1.630701	0.742819	5462.699219
10985.817288	1.585748	0.742819	6874.015137
10985.818276	1.538573	0.742819	8394.125000
10985.819326	1.489006	0.742819	9957.582031
10985.820232	1.448166	0.742819	11269.621094
10985.821098	1.410362	0.742819	12490.995117
10985.822198	1.366377	0.742819	13994.009766
10985.823166	1.327518	0.742819	15279.047852
10985.824039	1.293706	0.742819	16408.453125
10985.825071	1.256400	0.742819	17705.058594
10985.826120	1.219069	0.742819	18983.861328
10985.827001	0.914828	0.742819	19789.824219
10985.827883	0.117107	0.742819	19893.113281
10985.828978	0.090747	0.742819	19992.480469
10985.829932	0.090677	0.742819	20078.986328
10985.830789	0.090663	0.742819	20156.683594
10985.831802	0.090912	0.742819	20248.777344
10985.832843	0.090740	0.742819	20343.238281
10985.833733	0.090707	0.742819	20423.966797
10985.834638	0.090692	0.742819	20506.042969
10985.835725	0.090721	0.742819	20604.656250
10985.836669	0.090626	0.742819	20690.207031
10986.854986	1.330741	0.772318	758.522400
10986.856043	1.712827	0.772318	2568.980713
10986.856926	1.676847	0.772318	4049.636719
10986.857831	1.628522	0.772318	5523.448730
10986.858940	1.574070	0.772318	7269.092285
10986.859903	1.527982	0.772318	8740.539062
10986.860762	1.486681	0.772318	10017.597656
10986.861798	1.440696	0.772318	11510.158203
10986.862826	1.398120	0.772318	12947.425781
10986.863720	1.361466	0.772318	14164.576172
10986.864675	1.324134	0.772318	15429.125000
10986.865735	1.283181	0.772318	16789.296875
10986.866664	1.249014	0.772318	17949.630859
10986.867535	1.217325	0.772318	19009.921875
10986.868627	0.657191	0.772318	19727.574219
10986.869626	0.092047	0.772318	19819.529297
10986.870514	0.090776	0.772318	19900.138672
10986.871489	0.090839	0.772318	19988.707031
10986.872537	0.090769	0.772318	20083.832031
10986.873447	0.090732	0.772318	20166.398437
10986.874309	0.090769	0.772318	20244.640625
10986.875394	0.090828	0.772318	20343.189453
10986.876388	0.090674	0.772318	20433.318359
10986.877278	0.090732	0.772318	20514.070312
10986.878276	0.090875	0.772318	20604.763672
10987.852286	1.256151	0.794574	618.026306
10987.853210	1.712790	0.794574	2200.644775
10987.854080	1.687339	0.794574	3668.629639
10987.855146	1.632653	0.794574	5409.037109
10987.856154	1.581654	0.794574	7003.344238
10987.857050	1.538152	0.794574	8381.528320
10987.858032	1.492489	0.794574	9847.152344
10987.859093	1.445098	0.794574	11380.400391
10987.860014	1.405968	0.794574	12675.296875
10987.860881	1.368684	0.794574	13861.946289
10987.861975	1.326742	0.794574	15313.402344
10987.862968	1.288070	0.794574	16592.455078
10987.863867	1.255085	0.794574	17720.777344
10987.864890	1.219248	0.794574	18968.068359
10987.865940	0.742405	0.794574	19747.593750
10987.866816	0.097734	0.794574	19833.208984
10987.867706	0.090630	0.794574	19913.869141
10987.868804	0.090813	0.794574	20013.582031
10987.869746	0.090699	0.794574	20099.021484
10987.870605	0.090677	0.794574	20176.914062
10987.871636	0.090894	0.794574	20270.625000
10987.872671	0.090696	0.794574	20364.496094
10987.873543	0.090615	0.794574	20443.511719
10987.874462	0.090732	0.794574	20526.894531
10987.875544	0.090798	0.794574	20625.138672
10988.890554	1.187875	0.800625	504.846741
10988.891623	1.711062	0.800625	2333.971924
10988.892639	1.676895	0.800625	4037.696777
10988.893530	1.630430	0.800625	5490.409668
10988.894523	1.581511	0.800625	7060.850098
10988.895583	1.530161	0.800625	8682.821289
10988.896500	1.485681	0.800625	10045.190430
10988.897364	1.446665	0.800625	11295.109375
10988.898418	1.402778	0.800625	12773.637695
10988.899428	1.361364	0.800625	14148.615234
10988.900317	1.326156	0.800625	15327.568359
10988.901294	1.288711	0.800625	16586.638672
10988.902351	1.250076	0.800625	17907.968750
10988.903268	1.217234	0.800625	19024.171875
10988.904138	0.850496	0.800625	19764.103516
10988.905238	0.096127	0.800625	19869.843750
10988.906196	0.090626	0.800625	19956.664062
10988.907077	0.090615	0.800625	20036.496094
10988.908061	0.090754	0.800625	20125.798828
10988.909112	0.090667	0.800625	20221.089844
10988.909998	0.090634	0.800625	20301.390625
10988.910858	0.090743	0.800625	20379.429687
10988.911944	0.090765	0.800625	20478.000000
10988.912908	0.090652	0.800625	20565.388672
10988.913771	0.090634	0.800625	20643.605469
10989.892109	1.267782	0.808214	644.033264
10989.893020	1.712743	0.808214	2204.342041
10989.893882	1.687042	0.808214	3658.572510
10989.894948	1.632356	0.808214	5398.664062
10989.895960	1.580947	0.808214	6998.582520
10989.896854	1.538068	0.808214	8373.615234
10989.897838	1.492310	0.808214	9842.047852
10989.898897	1.445142	0.808214	11372.453125
10989.899816	1.406038	0.808214	12664.601562
10989.900681	1.369197	0.808214	13848.957031
10989.901783	1.326460	0.808214	15310.715820
10989.902756	1.288286	0.808214	16564.218750
10989.903690	1.253958	0.808214	17735.414062
10989.904616	1.221269	0.808214	18866.308594
10989.905486	0.966138	0.808214	19706.847656
10989.906482	0.120652	0.808214	19827.017578
10989.907395	0.090648	0.808214	19909.779297
10989.908256	0.090747	0.808214	19987.912109
10989.909274	0.090751	0.808214	20080.296875
10989.910155	0.090659	0.808214	20160.167969
10989.911058	0.090721	0.808214	20242.089844
10989.911931	0.090670	0.808214	20321.244141
10989.912917	0.090710	0.808214	20410.685547
10989.913839	0.090681	0.808214	20494.292969
10989.914717	0.090656	0.808214	20573.888672
10990.927307	1.209679	0.804682	526.210388
10990.928168	1.707462	0.804682	1996.335449
10990.929227	1.684750	0.804682	3780.485352
10990.930110	1.638428	0.804682	5227.216797
10990.930982	1.594197	0.804682	6617.356445
10990.931971	1.546011	0.804682	8146.361328
10990.932900	1.500916	0.804682	9540.711914
10990.933824	1.459493	0.804682	10889.284180
10990.934704	1.421184	0.804682	12139.925781
10990.935745	1.379107	0.804682	13575.576172
10990.936646	1.342599	0.804682	14785.257812
10990.937528	1.308029	0.804682	15938.939453
10990.938487	1.272338	0.804682	17159.111328
10990.939470	1.236420	0.804682	18374.511719
10990.940394	1.204197	0.804682	19487.189453
10990.941264	0.430547	0.804682	19861.765625
10990.942304	0.090831	0.804682	19956.230469
10990.943183	0.090663	0.804682	20035.923828
10990.944044	0.090685	0.804682	20114.003906
10990.944932	0.090732	0.804682	20194.574219
10990.945979	0.090696	0.804682	20289.533203
10990.946870	0.090674	0.804682	20370.324219
10990.947743	0.090645	0.804682	20449.457031
10990.948726	0.090674	0.804682	20538.589844
10990.949652	0.090645	0.804682	20622.527344
10990.950576	0.090645	0.804682	20706.283203
10991.930821	1.199575	0.797161	514.617737
10991.931831	1.707521	0.797161	2239.213623
10991.932772	1.683168	0.797161	3823.074707
10991.933696	1.635557	0.797161	5334.329102
10991.934560	1.590179	0.797161	6708.244141
10991.935587	1.541034	0.797161	8290.885742
10991.936493	1.498345	0.797161	9648.385742
10991.937372	1.458237	0.797161	10930.175781
10991.938315	1.418167	0.797161	12267.506836
10991.939306	1.377502	0.797161	13632.611328
10991.940225	1.340446	0.797161	14864.480469
10991.941098	1.306022	0.797161	16004.637695
10991.942189	1.266009	0.797161	17385.853516
10991.943087	1.233032	0.797161	18493.117187
10991.943962	1.202201	0.797161	19545.042969
10991.944880	0.355463	0.797161	19871.357422
10991.945891	0.090656	0.797161	19963.009766
10991.946784	0.090707	0.797161	20044.011719
10991.947650	0.090707	0.797161	20122.564453
10991.948644	0.090714	0.797161	20212.734375
10991.949557	0.090784	0.797161	20295.619141
10991.950480	0.090652	0.797161	20379.291016
10991.951341	0.090714	0.797161	20457.396484
10991.952391	0.090714	0.797161	20552.646484
10991.953280	0.090667	0.797161	20633.248047
10992.966083	1.200004	0.791090	520.801575
10992.966955	1.708777	0.791090	2010.854980
10992.967942	1.688284	0.791090	3677.190918
10992.968949	1.635663	0.791090	5324.303711
10992.969831	1.590582	0.791090	6727.197266
10992.970696	1.547249	0.791090	8065.567383
10992.971780	1.497971	0.791090	9689.368164
10992.972705	1.455450	0.791090	11035.660156
10992.973573	1.418339	0.791090	12266.778320
10992.974539	1.378722	0.791090	13598.624023
10992.975570	1.336827	0.791090	14976.892578
10992.976464	1.301971	0.791090	16140.855469
10992.977334	1.268654	0.791090	17244.583984
10992.978400	1.231044	0.791090	18556.876953
10992.979342	1.162090	0.791090	19651.566406
10992.980226	0.233170	0.791090	19857.689453
10992.981178	0.090692	0.791090	19944.029297
10992.982204	0.090674	0.791090	20037.060547
10992.983088	0.090641	0.791090	20117.187500
10992.983947	0.090674	0.791090	20195.076172
10992.985010	0.090831	0.791090	20291.628906
10992.985942	0.090674	0.791090	20376.136719
10992.986813	0.090714	0.791090	20455.148437
10992.987733	0.090754	0.791090	20538.642578
10992.988808	0.090685	0.791090	20636.128906
10993.969603	1.197502	0.794047	516.123535
10993.970539	1.706993	0.794047	2113.869141
10993.971621	1.679736	0.794047	3931.343750
10993.972564	1.630675	0.794047	5469.070312
10993.973431	1.585931	0.794047	6844.072754
10993.974510	1.534677	0.794047	8499.988281
10993.975527	1.487010	0.794047	10012.278320
10993.976404	1.447518	0.794047	11281.751953
10993.977393	1.406814	0.794047	12673.090820
10993.978446	1.363154	0.794047	14108.492187
10993.979364	1.326332	0.794047	15326.064453
10993.980229	1.291725	0.794047	16443.406250
10993.981296	1.253170	0.794047	17780.539062
10993.982293	1.217311	0.794047	18994.197266
10993.983189	0.888069	0.794047	19789.906250
10993.984172	0.108776	0.794047	19896.832031
10993.985229	0.090736	0.794047	19992.740234
10993.986124	0.090619	0.794047	20073.843750
10993.986985	0.090663	0.794047	20151.904297
10993.988093	0.090751	0.794047	20252.457031
10993.989054	0.090641	0.794047	20339.562500
10993.989924	0.090648	0.794047	20418.425781
10993.991011	0.090765	0.794047	20517.087891
10993.992058	0.090688	0.794047	20612.039062
10993.992946	0.090645	0.794047	20692.531250
10995.003927	1.253767	0.786349	648.197632
10995.004991	1.712380	0.786349	2470.170410
10995.005916	1.676686	0.786349	4021.104736
10995.006785	1.630250	0.786349	5437.791992
10995.007871	1.576487	0.786349	7149.856445
10995.008866	1.528143	0.786349	8670.359375
10995.009760	1.486516	0.786349	9999.304687
10995.010761	1.443061	0.786349	11443.809570
10995.011819	1.398995	0.786349	12923.946289
10995.012724	1.360844	0.786349	14155.509766
10995.013596	1.324775	0.786349	15310.713867
10995.014707	1.283804	0.786349	16737.019531
10995.015666	1.248831	0.786349	17934.648437
10995.016529	1.218098	0.786349	18985.867187
10995.017572	0.711207	0.786349	19727.656250
10995.018610	0.093208	0.786349	19824.406250
10995.019487	0.090652	0.786349	19903.908203
10995.020416	0.090699	0.786349	19988.167969
10995.021478	0.090707	0.786349	20084.498047
10995.022416	0.090634	0.786349	20169.511719
10995.023276	0.090608	0.786349	20247.433594
10995.024296	0.090824	0.786349	20340.074219
10995.025320	0.090659	0.786349	20432.910156
10995.026213	0.090630	0.786349	20513.841797
10995.027160	0.090754	0.786349	20599.787109
10996.006331	1.186007	0.817923	504.052979
10996.007330	1.708315	0.817923	2210.660156
10996.008402	1.678330	0.817923	4009.830078
10996.009296	1.630576	0.817923	5467.565430
10996.010158	1.584862	0.817923	6833.716309
10996.011265	1.533512	0.817923	8531.314453
10996.012227	1.488047	0.817923	9962.815430
10996.013092	1.449551	0.817923	11216.676758
10996.014150	1.405195	0.817923	12703.373047
10996.015196	1.362502	0.817923	14128.550781
10996.016079	1.326867	0.817923	15300.173828
10996.017028	1.290579	0.817923	16524.933594
10996.018077	1.251918	0.817923	17838.195312
10996.019013	1.218420	0.817923	18978.636719
10996.019878	0.928180	0.817923	19781.511719
10996.020931	0.103601	0.817923	19890.603516
10996.021955	0.090608	0.817923	19983.386719
10996.022826	0.090634	0.817923	20062.328125
10996.023792	0.090791	0.817923	20150.033203
10996.024859	0.090718	0.817923	20246.828125
10996.025775	0.090681	0.817923	20329.892578
10996.026644	0.090740	0.817923	20408.746094
10996.027707	0.090842	0.817923	20505.310547
10996.028700	0.090656	0.817923	20595.332031
10996.029591	0.090648	0.817923	20676.099609
10997.042617	1.183293	0.811119	495.799957
10997.043558	1.706334	0.811119	2101.460449
10997.044635	1.679963	0.811119	3910.781250
10997.045573	1.631287	0.811119	5440.928223
10997.046443	1.586616	0.811119	6821.284180
10997.047487	1.536229	0.811119	8425.107422
10997.048521	1.487501	0.811119	9963.183594
10997.049417	1.448042	0.811119	11260.628906
10997.050377	1.407997	0.811119	12612.305664
10997.051431	1.364128	0.811119	14050.096680
10997.052362	1.327196	0.811119	15285.715820
10997.053228	1.292798	0.811119	16405.279297
10997.054320	1.253383	0.811119	17773.972656
10997.055316	1.217783	0.811119	18986.884766
10997.056223	0.881396	0.811119	19786.310547
10997.057222	0.106974	0.811119	19893.177734
10997.058262	0.090714	0.811119	19987.519531
10997.059152	0.090670	0.811119	20068.216797
10997.060015	0.090685	0.811119	20146.478516
10997.061110	0.090784	0.811119	20245.886719
10997.062079	0.090685	0.811119	20333.759766
10997.062937	0.090648	0.811119	20411.535156
10997.064017	0.090773	0.811119	20509.570312
10997.065061	0.090667	0.811119	20604.226562
10997.065936	0.090652	0.811119	20683.546875
10998.043065	1.193221	0.847128	502.346222
10998.044130	1.711326	0.847128	2324.907959
10998.045149	1.676265	0.847128	4033.021484
10998.046044	1.629847	0.847128	5491.734863
10998.047025	1.580570	0.847128	7042.274414
10998.048097	1.529041	0.847128	8681.406250
10998.049007	1.485699	0.847128	10033.392578
10998.049878	1.446002	0.847128	11292.860352
10998.050984	1.400812	0.847128	12842.158203
10998.051967	1.360763	0.847128	14179.788086
10998.052833	1.326072	0.847128	15328.166016
10998.053919	1.284620	0.847128	16723.263672
10998.054967	1.246355	0.847128	18029.443359
10998.055867	1.214202	0.847128	19122.224609
10998.056813	0.704861	0.847128	19789.023437
10998.057866	0.092955	0.847128	19886.906250
10998.058806	0.090685	0.847128	19972.150391
10998.059666	0.090645	0.847128	20050.105469
10998.060714	0.090802	0.847128	20145.265625
10998.061726	0.090667	0.847128	20237.019531
10998.062604	0.090630	0.847128	20316.591797
10998.063567	0.090703	0.847128	20403.939453
10998.064621	0.090831	0.847128	20499.675781
10998.065546	0.090623	0.847128	20583.501953
10998.066402	0.090659	0.847128	20661.105469
10999.080547	1.356354	0.836022	789.397888
10999.081588	1.712512	0.836022	2572.123047
10999.082473	1.676180	0.836022	4055.542725
10999.083447	1.626720	0.836022	5639.967773
10999.084501	1.572858	0.836022	7297.759766
10999.085426	1.528378	0.836022	8711.508789
10999.086290	1.486498	0.836022	9995.842773
10999.087343	1.440483	0.836022	11512.671875
10999.088381	1.397787	0.836022	12963.574219
10999.089263	1.361019	0.836022	14163.993164
10999.090250	1.322300	0.836022	15469.103516
10999.091328	1.281053	0.836022	16850.078125
10999.092239	1.247413	0.836022	17986.472656
10999.093106	1.215644	0.836022	19040.435547
10999.094209	0.615729	0.836022	19719.583984
10999.095178	0.091641	0.836022	19808.382812
10999.096061	0.090634	0.836022	19888.412109
10999.097053	0.090656	0.836022	19978.341797
10999.098111	0.090641	0.836022	20074.240234
10999.099002	0.090659	0.836022	20155.017578
10999.099921	0.090601	0.836022	20238.279297
10999.100785	0.090659	0.836022	20316.609375
10999.101795	0.090688	0.836022	20408.205078
10999.102718	0.090692	0.836022	20491.914062
10999.103593	0.090663	0.836022	20571.244141
11000.078790	1.204266	0.860341	519.038757
11000.079664	1.707389	0.860341	2011.296631
11000.080779	1.680535	0.860341	3885.092773
11000.081759	1.629979	0.860341	5482.472656
11000.082629	1.585935	0.860341	6862.236328
11000.083692	1.534292	0.860341	8493.188477
11000.084746	1.484934	0.860341	10058.308594
11000.085633	1.445511	0.860341	11340.477539
11000.086561	1.406210	0.860341	12645.440430
11000.087648	1.361624	0.860341	14125.525391
11000.088596	1.324417	0.860341	15381.072266
11000.089464	1.290399	0.860341	16501.138672
11000.090521	1.251749	0.860341	17824.238281
11000.091539	1.215787	0.860341	19061.910156
11000.092439	0.819313	0.860341	19799.291016
11000.093399	0.103418	0.860341	19898.572266
11000.094444	0.090707	0.860341	19993.361328
11000.095364	0.090710	0.860341	20076.814453
11000.096228	0.090688	0.860341	20155.169922
11000.097296	0.090776	0.860341	20252.119141
11000.098300	0.090667	0.860341	20343.148437
11000.099177	0.090648	0.860341	20422.646484
11000.100177	0.090754	0.860341	20513.400391
11000.101217	0.090740	0.860341	20607.769531
11000.102119	0.090663	0.860341	20689.546875
11001.119184	1.218362	0.861171	536.079224
11001.120050	1.708748	0.861171	2015.854614
11001.121074	1.686295	0.861171	3742.620850
11001.121984	1.637578	0.861171	5232.816895
11001.122905	1.591179	0.861171	6698.292969
11001.123778	1.547069	0.861171	8048.884277
11001.124805	1.499513	0.861171	9588.883789
11001.125705	1.458409	0.861171	10901.452148
11001.126584	1.421503	0.861171	12150.953125
11001.127565	1.381289	0.861171	13505.998047
11001.128521	1.342258	0.861171	14789.197266
11001.129453	1.305989	0.861171	16006.378906
11001.130324	1.272469	0.861171	17114.699219
11001.131367	1.235936	0.861171	18403.781250
11001.132258	1.204244	0.861171	19476.763672
11001.133134	0.437285	0.861171	19859.826172
11001.134100	0.091406	0.861171	19948.125000
11001.135077	0.090648	0.861171	20036.687500
11001.135975	0.090608	0.861171	20118.052734
11001.136856	0.090619	0.861171	20197.888672
11001.137911	0.090751	0.861171	20293.630859
11001.138810	0.090601	0.861171	20375.080078
11001.139685	0.090641	0.861171	20454.390625
11001.140570	0.090699	0.861171	20534.660156
11001.141611	0.090692	0.861171	20629.070312
11001.142508	0.090648	0.861171	20710.380859
11002.116534	1.195968	0.832654	502.306580
11002.117633	1.711278	0.832654	2383.001221
11002.118545	1.680242	0.832654	3915.381836
11002.119417	1.634729	0.832654	5340.865723
11002.120419	1.584499	0.832654	6928.534180
11002.121424	1.534863	0.832654	8471.072266
11002.122324	1.492742	0.832654	9814.540039
11002.123196	1.452411	0.832654	11081.041992
11002.124293	1.407660	0.832654	12625.245117
11002.125225	1.368999	0.832654	13901.152344
11002.126104	1.333931	0.832654	15073.677734
11002.127094	1.295757	0.832654	16356.476562
11002.128104	1.258165	0.832654	17627.222656
11002.128996	1.226232	0.832654	18721.021484
11002.129863	1.062616	0.832654	19642.308594
11002.130958	0.134879	0.832654	19790.001953
11002.131865	0.090623	0.832654	19872.197266
11002.132733	0.090623	0.832654	19950.857422
11002.133720	0.090787	0.832654	20040.464844
11002.134728	0.090725	0.832654	20131.916016
11002.135606	0.090747	0.832654	20211.591797
11002.136471	0.090740	0.832654	20290.082031
11002.137517	0.090787	0.832654	20385.044922
11002.138452	0.090659	0.832654	20469.810547
11002.139331	0.090765	0.832654	20549.593750
11003.161083	1.249753	0.788242	607.380188
11003.161957	1.711509	0.788242	2103.238770
11003.162862	1.687683	0.788242	3630.592041
11003.163961	1.631781	0.788242	5423.919434
11003.164921	1.583247	0.788242	6943.836914
11003.165787	1.540895	0.788242	8278.251953
11003.166846	1.491204	0.788242	9857.436523
11003.167879	1.445500	0.788242	11350.638672
11003.168759	1.408356	0.788242	12589.992187
11003.169734	1.368918	0.788242	13924.687500
11003.170793	1.326270	0.788242	15329.207031
11003.171719	1.290275	0.788242	16524.001953
11003.172582	1.257605	0.788242	17609.314453
11003.173682	1.219669	0.788242	18950.951172
11003.174695	0.787749	0.788242	19748.941406
11003.175571	0.100840	0.788242	19837.277344
11003.176561	0.090663	0.788242	19927.033203
11003.177622	0.090652	0.788242	20023.214844
11003.178507	0.090681	0.788242	20103.466797
11003.179377	0.090615	0.788242	20182.302734
11003.180478	0.090806	0.788242	20282.279297
11003.181454	0.090590	0.788242	20370.695312
11003.182323	0.090674	0.788242	20449.490234
11003.183377	0.090699	0.788242	20545.087891
11003.184409	0.090681	0.788242	20638.669922
11004.157472	1.287330	0.773736	660.400452
11004.158379	1.713102	0.773736	2214.183838
11004.159243	1.685735	0.773736	3670.658691
11004.160350	1.630368	0.773736	5475.475586
11004.161344	1.579742	0.773736	7045.739258
11004.162228	1.537474	0.773736	8404.866211
11004.163237	1.490365	0.773736	9908.644531
11004.164294	1.443801	0.773736	11434.742187
11004.165184	1.405488	0.773736	12685.626953
11004.166073	1.367567	0.773736	13901.394531
11004.167177	1.325046	0.773736	15364.246094
11004.168120	1.288608	0.773736	16579.404297
11004.168982	1.256565	0.773736	17662.562500
11004.170010	1.219651	0.773736	18916.363281
11004.171084	0.761265	0.773736	19733.960937
11004.171953	0.098676	0.773736	19819.710937
11004.172910	0.090707	0.773736	19906.517578
11004.173970	0.090721	0.773736	20002.681641
11004.174906	0.090648	0.773736	20087.529297
11004.175766	0.090670	0.773736	20165.505859
11004.176832	0.090718	0.773736	20262.210937
11004.177837	0.090703	0.773736	20353.367187
11004.178730	0.090615	0.773736	20434.287109
11004.179699	0.090776	0.773736	20522.250000
11004.180761	0.090743	0.773736	20618.619141
11005.197782	1.230989	0.733300	557.637878
11005.198662	1.710000	0.733300	2062.437988
11005.199648	1.686401	0.733300	3725.229736
11005.200705	1.631847	0.733300	5450.091797
11005.201621	1.584910	0.733300	6901.869141
11005.202489	1.540712	0.733300	8239.207031
11005.203600	1.490259	0.733300	9894.884766
11005.204595	1.446541	0.733300	11334.192383
11005.205472	1.409095	0.733300	12569.968750
11005.206579	1.363729	0.733300	14079.617187
11005.207613	1.322662	0.733300	15447.250000
11005.208509	1.288217	0.733300	16601.492187
11005.209451	1.253822	0.733300	17782.591797
11005.210498	1.216457	0.733300	19056.222656
11005.211441	0.782417	0.733300	19794.041016
11005.212303	0.101287	0.733300	19881.349609
11005.213358	0.090754	0.733300	19977.095703
11005.214371	0.090652	0.733300	20068.925781
11005.215248	0.090659	0.733300	20148.433594
11005.216221	0.090663	0.733300	20236.648437
11005.217264	0.090725	0.733300	20331.275391
11005.218176	0.090659	0.733300	20413.957031
11005.219035	0.090780	0.733300	20491.937500
11005.220063	0.090773	0.733300	20585.251953
11005.221059	0.090641	0.733300	20675.529297
11006.199282	1.218549	0.698153	586.121826
11006.200353	1.712197	0.698153	2419.885254
11006.201308	1.676759	0.698153	4021.190186
11006.202181	1.630792	0.698153	5444.871582
11006.203243	1.577333	0.698153	7119.999023
11006.204263	1.528356	0.698153	8678.921875
11006.205159	1.486113	0.698153	10010.479492
11006.206118	1.444497	0.698153	11395.751953
11006.207186	1.399596	0.698153	12890.520508
11006.208110	1.361378	0.698153	14148.433594
11006.208976	1.326006	0.698153	15296.754883
11006.210061	1.285386	0.698153	16691.398437
11006.211046	1.248999	0.698153	17921.662109
11006.211933	1.217406	0.698153	19001.501953
11006.212934	0.747861	0.698153	19750.111328
11006.213973	0.094307	0.698153	19848.095703
11006.214873	0.090707	0.698153	19929.732422
11006.215732	0.090758	0.698153	20007.693359
11006.216826	0.090824	0.698153	20107.054687
11006.217789	0.090667	0.698153	20194.367187
11006.218656	0.090736	0.698153	20273.035156
11006.219654	0.090798	0.698153	20363.652344
11006.220726	0.090765	0.698153	20460.953125
11006.221605	0.090718	0.698153	20540.693359
11006.222467	0.090820	0.698153	20618.980469
11007.233555	1.277831	0.688666	647.860229
11007.234494	1.713373	0.688666	2256.717285
11007.235362	1.686057	0.688666	3720.214844
11007.236399	1.631887	0.688666	5412.481934
11007.237426	1.580211	0.688666	7035.358887
11007.238319	1.537009	0.688666	8407.908203
11007.239268	1.492866	0.688666	9824.638672
11007.240321	1.445449	0.688666	11346.696289
11007.241256	1.406177	0.688666	12661.471680
11007.242130	1.369713	0.688666	13858.600586
11007.243201	1.327416	0.688666	15280.262695
11007.244211	1.288477	0.688666	16581.625000
11007.245106	1.255477	0.688666	17705.277344
11007.246077	1.221387	0.688666	18891.244141
11007.247153	0.775518	0.688666	19725.701172
11007.248063	0.097819	0.688666	19814.716797
11007.248928	0.090688	0.688666	19893.162109
11007.250033	0.090842	0.688666	19993.542969
11007.251020	0.090707	0.688666	20083.070312
11007.251903	0.090732	0.688666	20163.187500
11007.252898	0.090773	0.688666	20253.505859
11007.253941	0.090747	0.688666	20348.154297
11007.254817	0.090692	0.688666	20427.601562
11007.255673	0.090718	0.688666	20505.255859
11007.256775	0.090813	0.688666	20605.332031
11008.242102	1.191899	0.665233	499.405853
11008.243174	1.711494	0.665233	2334.127686
11008.244184	1.676451	0.665233	4027.343750
11008.245078	1.630324	0.665233	5484.853027
11008.246076	1.579911	0.665233	7061.604004
11008.247152	1.528693	0.665233	8706.477539
11008.248057	1.485414	0.665233	10050.777344
11008.248933	1.445138	0.665233	11316.717773
11008.250033	1.400607	0.665233	12857.384766
11008.250999	1.361169	0.665233	14172.274414
11008.251869	1.326445	0.665233	15326.282227
11008.252916	1.286195	0.665233	16672.927734
11008.253960	1.248384	0.665233	17976.240234
11008.254860	1.215879	0.665233	19070.531250
11008.255804	0.753867	0.665233	19782.181641
11008.256874	0.093387	0.665233	19882.105469
11008.257814	0.090681	0.665233	19967.345703
11008.258677	0.090699	0.665233	20045.619141
11008.259745	0.090776	0.665233	20142.568359
11008.260750	0.090659	0.665233	20233.681641
11008.261640	0.090765	0.665233	20314.462891
11008.262603	0.090802	0.665233	20401.904297
11008.263656	0.090769	0.665233	20497.484375
11008.264571	0.090747	0.665233	20580.517578
11008.265483	0.090718	0.665233	20663.251953
11009.268201	1.214191	0.714548	563.384460
11009.269075	1.710527	0.714548	2058.385498
11009.270034	1.687192	0.714548	3676.402832
11009.270993	1.636970	0.714548	5246.257324
11009.271909	1.590623	0.714548	6703.267578
11009.272790	1.547479	0.714548	8066.596680
11009.273823	1.499220	0.714548	9615.291016
11009.274727	1.457944	0.714548	10933.272461
11009.275606	1.420459	0.714548	12181.855469
11009.276515	1.382226	0.714548	13438.298828
11009.277547	1.341405	0.714548	14822.628906
11009.278471	1.305179	0.714548	16028.615234
11009.279343	1.272246	0.714548	17138.013672
11009.280421	1.234482	0.714548	18468.785156
11009.281308	1.202413	0.714548	19535.326172
11009.282177	0.363827	0.714548	19851.492187
11009.283060	0.091036	0.714548	19931.876953
11009.284113	0.090663	0.714548	20027.345703
11009.285009	0.090656	0.714548	20108.572266
11009.285885	0.090703	0.714548	20188.027344
11009.286865	0.090762	0.714548	20276.974609
11009.287810	0.090699	0.714548	20362.685547
11009.288734	0.090677	0.714548	20446.470703
11009.289595	0.090667	0.714548	20524.535156
11009.290621	0.090692	0.714548	20617.585937
11010.280909	1.201681	0.725932	528.739624
11010.281773	1.708784	0.725932	2005.129150
11010.282724	1.688925	0.725932	3611.296387
11010.283778	1.634542	0.725932	5334.104004
11010.284677	1.588715	0.725932	6762.358398
11010.285549	1.545853	0.725932	8110.342285
11010.286599	1.496634	0.725932	9681.808594
11010.287553	1.453630	0.725932	11068.572266
11010.288431	1.416401	0.725932	12312.172852
11010.289373	1.377682	0.725932	13609.949219
11010.290430	1.335340	0.725932	15021.404297
11010.291321	1.300752	0.725932	16180.374023
11010.292185	1.267665	0.725932	17275.636719
11010.293243	1.230260	0.725932	18577.251953
11010.294195	1.148430	0.725932	19670.556641
11010.295068	0.221382	0.725932	19863.822266
11010.296007	0.090645	0.725932	19948.937500
11010.297080	0.090626	0.725932	20046.179687
11010.297955	0.090637	0.725932	20125.486328
11010.298817	0.090623	0.725932	20203.603516
11010.299836	0.090743	0.725932	20296.070312
11010.300796	0.090674	0.725932	20383.117187
11010.301666	0.090623	0.725932	20461.958984
11010.302554	0.090721	0.725932	20542.519531
11010.303653	0.090699	0.725932	20642.197266
11011.306012	1.277637	0.743471	647.761841
11011.307033	1.713204	0.743471	2396.943359
11011.307923	1.680959	0.743471	3892.997314
11011.308896	1.631206	0.743471	5480.160645
11011.309950	1.577062	0.743471	7142.383789
11011.310876	1.532483	0.743471	8561.462891
11011.311736	1.490647	0.743471	9843.418945
11011.312815	1.444061	0.743471	11401.560547
11011.313828	1.401654	0.743471	12821.435547
11011.314706	1.365044	0.743471	14019.944336
11011.315688	1.326193	0.743471	15322.265625
11011.316748	1.285715	0.743471	16685.123047
11011.317655	1.251932	0.743471	17820.625000
11011.318529	1.219713	0.743471	18886.654297
11011.319638	0.731711	0.743471	19698.123047
11011.320625	0.093666	0.743471	19790.570312
11011.321517	0.090707	0.743471	19871.480469
11011.322509	0.090751	0.743471	19961.505859
11011.323553	0.090696	0.743471	20056.191406
11011.324439	0.090674	0.743471	20136.529297
11011.325319	0.090670	0.743471	20216.318359
11011.326419	0.090857	0.743471	20316.261719
11011.327387	0.090721	0.743471	20404.080078
11011.328250	0.090696	0.743471	20482.349609
11011.329301	0.090842	0.743471	20577.824219
11012.318719	1.226389	0.698398	607.062622
11012.319771	1.711893	0.698398	2407.974365
11012.320707	1.677902	0.698398	3978.490234
11012.321571	1.632491	0.698398	5388.962891
11012.322613	1.580391	0.698398	7035.729980
11012.323650	1.530850	0.698398	8623.220703
11012.324523	1.489087	0.698398	9923.193359
11012.325490	1.446189	0.698398	11321.658203
11012.326553	1.401420	0.698398	12811.367187
11012.327475	1.363370	0.698398	14068.394531
11012.328346	1.327910	0.698398	15225.003906
11012.329415	1.287488	0.698398	16601.328125
11012.330418	1.250457	0.698398	17855.535156
11012.331311	1.218889	0.698398	18944.003906
11012.332301	0.799017	0.698398	19735.031250
11012.333362	0.095098	0.698398	19835.929687
11012.334268	0.090674	0.698398	19918.080078
11012.335132	0.090710	0.698398	19996.453125
11012.336236	0.090725	0.698398	20096.613281
11012.337210	0.090579	0.698398	20184.835937
11012.338077	0.090623	0.698398	20263.406250
11012.339155	0.090809	0.698398	20361.298828
11012.340183	0.090721	0.698398	20454.560547
11012.341070	0.090656	0.698398	20534.972656
11012.341981	0.090740	0.698398	20617.636719
11013.347776	1.195375	0.686100	514.011108
11013.348749	1.707436	0.686100	2175.346680
11013.349801	1.679491	0.686100	3942.171143
11013.350722	1.631462	0.686100	5444.748047
11013.351589	1.586221	0.686100	6820.001465
11013.352686	1.534398	0.686100	8503.236328
11013.353695	1.486304	0.686100	10002.916992
11013.354579	1.447625	0.686100	11282.617187
11013.355604	1.405042	0.686100	12722.785156
11013.356662	1.361678	0.686100	14163.441406
11013.357553	1.325629	0.686100	15344.576172
11013.358418	1.290524	0.686100	16460.878906
11013.359525	1.251588	0.686100	17846.386719
11013.360495	1.217292	0.686100	19027.160156
11013.361367	0.889453	0.686100	19802.763672
11013.362402	0.100605	0.686100	19906.890625
11013.363445	0.090685	0.686100	20001.474609
11013.364326	0.090685	0.686100	20081.367187
11013.365245	0.090754	0.686100	20164.769531
11013.366319	0.090714	0.686100	20262.197266
11013.367257	0.090634	0.686100	20347.210937
11013.368127	0.090721	0.686100	20426.138672
11013.369159	0.090787	0.686100	20519.832031
11013.370181	0.090670	0.686100	20612.496094
11013.371068	0.090714	0.686100	20692.958984
11014.353416	1.281808	0.678567	640.903931
11014.354303	1.711967	0.678567	2159.418213
11014.355273	1.684911	0.678567	3793.781738
11014.356348	1.629119	0.678567	5545.083984
11014.357273	1.581808	0.678567	7008.256348
11014.358135	1.538870	0.678567	8334.761719
11014.359229	1.488798	0.678567	9963.505859
11014.360234	1.443962	0.678567	11414.688477
11014.361111	1.407063	0.678567	12648.682617
11014.362090	1.366970	0.678567	13986.946289
11014.363163	1.325046	0.678567	15408.720703
11014.364054	1.289451	0.678567	16557.621094
11014.364926	1.255942	0.678567	17652.802734
11014.366037	1.217670	0.678567	19005.632812
11014.367025	0.785577	0.678567	19781.783203
11014.367891	0.100785	0.678567	19869.062500
11014.368944	0.090784	0.678567	19964.658203
11014.369990	0.090721	0.678567	20059.552734
11014.370881	0.090685	0.678567	20140.353516
11014.371808	0.090725	0.678567	20224.455078
11014.372877	0.090835	0.678567	20321.558594
11014.373821	0.090714	0.678567	20407.193359
11014.374690	0.090758	0.678567	20486.062500
11014.375732	0.090806	0.678567	20580.681641
11014.376748	0.090692	0.678567	20672.824219
11015.389710	1.268643	0.694463	641.933105
11015.390603	1.712845	0.694463	2171.503906
11015.391467	1.687134	0.694463	3629.187500
11015.392579	1.631441	0.694463	5443.349609
11015.393539	1.582156	0.694463	6962.219238
11015.394429	1.539349	0.694463	8332.240234
11015.395449	1.492185	0.694463	9854.268555
11015.396504	1.445453	0.694463	11379.221680
11015.397393	1.407122	0.694463	12630.152344
11015.398295	1.369186	0.694463	13865.158203
11015.399388	1.326775	0.694463	15315.323242
11015.400336	1.289843	0.694463	16538.093750
11015.401203	1.257913	0.694463	17628.703125
11015.402253	1.220848	0.694463	18910.593750
11015.403300	0.794901	0.694463	19742.855469
11015.404179	0.101448	0.694463	19832.027344
11015.405130	0.090707	0.694463	19918.289062
11015.406192	0.090696	0.694463	20014.607422
11015.407112	0.090699	0.694463	20098.050781
11015.407968	0.090721	0.694463	20175.708984
11015.409021	0.090780	0.694463	20271.300781
11015.410035	0.090692	0.694463	20363.261719
11015.410925	0.090696	0.694463	20443.980469
11015.411901	0.090850	0.694463	20532.650391
11015.412954	0.090776	0.694463	20628.238281
11016.387017	1.197360	0.748503	517.259338
11016.387883	1.707737	0.748503	1996.159424
11016.388969	1.682505	0.748503	3823.359863
11016.389977	1.630433	0.748503	5466.836914
11016.390867	1.585547	0.748503	6877.973633
11016.391864	1.537687	0.748503	8411.046875
11016.392920	1.487981	0.748503	9982.354492
11016.393829	1.446984	0.748503	11297.662109
11016.394694	1.409084	0.748503	12516.520508
11016.395799	1.365084	0.748503	14024.938477
11016.396785	1.325727	0.748503	15332.105469
11016.397668	1.291685	0.748503	16472.662109
11016.398678	1.255100	0.748503	17740.312500
11016.399745	1.217300	0.748503	19039.171875
11016.400628	0.853601	0.748503	19792.902344
11016.401535	0.107080	0.748503	19890.023437
11016.402617	0.090762	0.748503	19988.228516
11016.403576	0.090612	0.748503	20075.125000
11016.404439	0.090707	0.748503	20153.404297
11016.405467	0.090751	0.748503	20246.695312
11016.406501	0.090743	0.748503	20340.523437
11016.407390	0.090696	0.748503	20421.152344
11016.408325	0.090795	0.748503	20506.044922
11016.409391	0.090743	0.748503	20602.777344
11016.410332	0.090619	0.748503	20688.048828
11017.427387	1.185169	0.733763	500.141113
11017.428346	1.706792	0.733763	2136.954590
11017.429411	1.679590	0.733763	3925.717773
11017.430328	1.631481	0.733763	5421.785645
11017.431202	1.585935	0.733763	6807.892578
11017.432275	1.534969	0.733763	8454.915039
11017.433276	1.487809	0.733763	9944.211914
11017.434167	1.448862	0.733763	11235.148437
11017.435163	1.406990	0.733763	12636.509766
11017.436234	1.363466	0.733763	14096.781250
11017.437125	1.327328	0.733763	15279.430664
11017.437993	1.292109	0.733763	16400.982422
11017.439110	1.252694	0.733763	17800.242187
11017.440082	1.218234	0.733763	18984.365234
11017.440950	0.923522	0.733763	19785.982422
11017.442006	0.103440	0.733763	19895.214844
11017.443033	0.090696	0.733763	19988.359375
11017.443920	0.090681	0.733763	20068.792969
11017.444845	0.090872	0.733763	20152.849609
11017.445900	0.090798	0.733763	20248.642578
11017.446834	0.090615	0.733763	20333.277344
11017.447696	0.090667	0.733763	20411.431641
11017.448737	0.090718	0.733763	20505.869141
11017.449757	0.090667	0.733763	20598.349609
11017.450634	0.090659	0.733763	20677.857422
11018.425865	1.264757	0.751858	633.643250
11018.426789	1.712882	0.751858	2216.346191
11018.427653	1.686812	0.751858	3673.751465
11018.428717	1.632165	0.751858	5410.375488
11018.429737	1.580720	0.751858	7022.709961
11018.430634	1.537306	0.751858	8401.673828
11018.431601	1.492295	0.751858	9844.722656
11018.432652	1.445175	0.751858	11363.601562
11018.433566	1.406609	0.751858	12649.242187
11018.434436	1.369508	0.751858	13840.713867
11018.435531	1.327357	0.751858	15294.169922
11018.436525	1.288766	0.751858	16575.203125
11018.437406	1.256074	0.751858	17681.804687
11018.438439	1.219929	0.751858	18941.992187
11018.439496	0.762462	0.751858	19747.914062
11018.440367	0.098895	0.751858	19834.052734
11018.441223	0.090670	0.751858	19911.666016
11018.442339	0.090758	0.751858	20012.951172
11018.443302	0.090637	0.751858	20100.234375
11018.444159	0.090645	0.751858	20177.916016
11018.445192	0.090835	0.751858	20271.748047
11018.446227	0.090681	0.751858	20365.603516
11018.447115	0.090674	0.751858	20446.121094
11018.448038	0.090769	0.751858	20529.900391
11018.449111	0.090784	0.751858	20627.310547
11019.464126	1.188230	0.714604	506.185944
11019.465156	1.710198	0.714604	2267.689697
11019.466202	1.677455	0.714604	4022.307617
11019.467084	1.630657	0.714604	5460.546875
11019.468021	1.583009	0.714604	6943.826172
11019.469084	1.531816	0.714604	8572.146484
11019.470015	1.487842	0.714604	9957.327148
11019.470891	1.448679	0.714604	11226.370117
11019.471934	1.405038	0.714604	12691.824219
11019.472954	1.362982	0.714604	14082.066406
11019.473847	1.327731	0.714604	15267.730469
11019.474813	1.290967	0.714604	16514.804687
11019.475871	1.251559	0.714604	17838.953125
11019.476801	1.218622	0.714604	18972.271484
11019.477670	0.898718	0.714604	19753.257812
11019.478756	0.098892	0.714604	19860.654297
11019.479750	0.090634	0.714604	19950.744141
11019.480645	0.090626	0.714604	20031.855469
11019.481649	0.090751	0.714604	20122.968750
11019.482696	0.090707	0.714604	20217.939453
11019.483597	0.090667	0.714604	20299.630859
11019.484456	0.090707	0.714604	20377.548828
11019.485558	0.090732	0.714604	20477.535156
11019.486522	0.090637	0.714604	20564.910156
11019.487381	0.090692	0.714604	20642.814453
11020.466631	1.204504	0.694974	522.754883
11020.467499	1.707942	0.694974	2005.248413
11020.468561	1.682875	0.694974	3792.461426
11020.469577	1.630272	0.694974	5448.817871
11020.470471	1.585137	0.694974	6865.930176
11020.471453	1.538097	0.694974	8376.341797
11020.472526	1.487710	0.694974	9972.654297
11020.473442	1.446779	0.694974	11297.903320
11020.474310	1.408561	0.694974	12520.534180
11020.475415	1.364857	0.694974	14028.701172
11020.476390	1.325944	0.694974	15321.496094
11020.477259	1.292146	0.694974	16444.371094
11020.478350	1.252295	0.694974	17810.625000
11020.479388	1.215824	0.694974	19072.650391
11020.480282	0.812007	0.694974	19798.583984
11020.481214	0.103308	0.694974	19894.867187
11020.482285	0.090765	0.694974	19992.076172
11020.483231	0.090641	0.694974	20077.822266
11020.484095	0.090718	0.694974	20156.203125
11020.485161	0.090780	0.694974	20252.974609
11020.486177	0.090648	0.694974	20345.072266
11020.487055	0.090645	0.694974	20424.658203
11020.488019	0.090813	0.694974	20512.201172
11020.489072	0.090798	0.694974	20607.812500
11020.489988	0.090696	0.694974	20690.890625
11021.500857	1.195924	0.705383	503.484009
11021.501940	1.711501	0.705383	2357.040039
11021.502939	1.676470	0.705383	4031.833252
11021.503824	1.630598	0.705383	5474.912598
11021.504853	1.579281	0.705383	7099.992676
11021.505910	1.528817	0.705383	8715.952148
11021.506793	1.486212	0.705383	10028.277344
11021.507699	1.445405	0.705383	11337.814453
11021.508797	1.400493	0.705383	12875.555664
11021.509735	1.361521	0.705383	14152.662109
11021.510595	1.327284	0.705383	15294.125977
11021.511626	1.287400	0.705383	16621.435547
11021.512661	1.249717	0.705383	17914.892578
11021.513555	1.217875	0.705383	19003.671875
11021.514507	0.798406	0.705383	19763.753906
11021.515561	0.095596	0.705383	19864.511719
11021.516492	0.090692	0.705383	19948.945312
11021.517353	0.090714	0.705383	20027.050781
11021.518417	0.090776	0.705383	20123.636719
11021.519426	0.090718	0.705383	20215.171875
11021.520321	0.090721	0.705383	20296.367187
11021.521291	0.090853	0.705383	20384.494141
11021.522344	0.090835	0.705383	20480.142578
11021.523263	0.090667	0.705383	20563.464844
11021.524126	0.090710	0.705383	20641.748047
11022.505502	1.282390	0.740736	654.018982
11022.506424	1.713113	0.740736	2233.509033
11022.507286	1.685764	0.740736	3686.637695
11022.508371	1.631100	0.740736	5456.380859
11022.509379	1.579775	0.740736	7048.794434
11022.510257	1.537159	0.740736	8398.419922
11022.511237	1.491269	0.740736	9859.864258
11022.512304	1.444175	0.740736	11400.798828
11022.513204	1.405543	0.740736	12665.788086
11022.514082	1.368080	0.740736	13866.961914
11022.515187	1.325354	0.740736	15331.478516
11022.516154	1.287989	0.740736	16576.964844
11022.517044	1.255569	0.740736	17694.421875
11022.518046	1.220035	0.740736	18916.896484
11022.519106	0.772137	0.740736	19735.361328
11022.519991	0.098331	0.740736	19822.384766
11022.520868	0.090725	0.740736	19901.951172
11022.521974	0.090791	0.740736	20002.365234
11022.522930	0.090740	0.740736	20089.113281
11022.523797	0.090769	0.740736	20167.810547
11022.524852	0.090879	0.740736	20263.687500
11022.525869	0.090762	0.740736	20355.992187
11022.526757	0.090747	0.740736	20436.576172
11022.527691	0.090787	0.740736	20521.371094
11022.528745	0.090824	0.740736	20617.099609
11023.535628	1.265065	0.751270	638.857666
11023.536513	1.712179	0.751270	2154.135986
11023.537377	1.686932	0.751270	3611.645508
11023.538486	1.631763	0.751270	5421.270508
11023.539452	1.583262	0.751270	6950.701172
11023.540313	1.541125	0.751270	8277.610352
11023.541394	1.490152	0.751270	9888.464844
11023.542440	1.444266	0.751270	11399.167969
11023.543327	1.406719	0.751270	12646.927734
11023.544279	1.367721	0.751270	13948.998047
11023.545336	1.325676	0.751270	15350.238281
11023.546275	1.289249	0.751270	16560.843750
11023.547137	1.256624	0.751270	17644.052734
11023.548210	1.219416	0.751270	18952.486328
11023.549242	0.773456	0.751270	19750.693359
11023.550109	0.099701	0.751270	19837.134766
11023.551071	0.090710	0.751270	19924.398437
11023.552124	0.090714	0.751270	20019.919922
11023.553049	0.090721	0.751270	20103.837891
11023.553915	0.090769	0.751270	20182.443359
11023.554983	0.090835	0.751270	20279.455078
11023.555981	0.090710	0.751270	20369.984375
11023.556872	0.090681	0.751270	20450.781250
11023.557849	0.090703	0.751270	20539.398437
11023.558902	0.090696	0.751270	20634.900391
11024.544287	1.263999	0.777269	662.335449
11024.545347	1.712058	0.777269	2477.117187
11024.546276	1.675748	0.777269	4033.887207
11024.547142	1.629353	0.777269	5444.907227
11024.548215	1.576626	0.777269	7136.626953
11024.549224	1.527982	0.777269	8678.361328
11024.550103	1.486611	0.777269	9985.092773
11024.551112	1.442765	0.777269	11440.842773
11024.552179	1.398278	0.777269	12932.804687
11024.553076	1.360851	0.777269	14153.488281
11024.553939	1.324611	0.777269	15296.626953
11024.555061	1.283723	0.777269	16736.964844
11024.556027	1.248483	0.777269	17943.000000
11024.556888	1.217395	0.777269	18991.177734
11024.557958	0.686913	0.777269	19726.173828
11024.558996	0.092681	0.777269	19822.376953
11024.559865	0.090659	0.777269	19901.160156
11024.560798	0.090795	0.777269	19985.871094
11024.561857	0.090729	0.777269	20081.953125
11024.562803	0.090656	0.777269	20167.712891
11024.563671	0.090714	0.777269	20246.453125
11024.564711	0.090817	0.777269	20340.902344
11024.565730	0.090725	0.777269	20433.351562
11024.566617	0.090699	0.777269	20513.802734
11024.567574	0.090710	0.777269	20600.613281
11025.572329	1.245809	0.773003	585.530396
11025.573211	1.710820	0.773003	2094.473877
11025.574183	1.686134	0.773003	3733.395996
11025.575248	1.630734	0.773003	5470.127441
11025.576174	1.583133	0.773003	6936.108887
11025.577045	1.539760	0.773003	8277.239258
11025.578136	1.489838	0.773003	9902.652344
11025.579123	1.445640	0.773003	11329.499023
11025.580010	1.408784	0.773003	12579.090820
11025.581029	1.367490	0.773003	13972.563477
11025.582094	1.325043	0.773003	15383.734375
11025.582983	1.290048	0.773003	16530.585937
11025.583847	1.256587	0.773003	17616.277344
11025.584957	1.218897	0.773003	18969.251953
11025.585928	0.833756	0.773003	19778.828125
11025.586788	0.105776	0.773003	19869.794922
11025.587857	0.090835	0.773003	19966.898437
11025.588896	0.090725	0.773003	20061.162109
11025.589765	0.090710	0.773003	20139.990234
11025.590669	0.090725	0.773003	20222.005859
11025.591760	0.090758	0.773003	20321.023437
11025.592702	0.090652	0.773003	20406.417969
11025.593567	0.090699	0.773003	20484.873047
11025.594604	0.090802	0.773003	20579.035156
11025.595630	0.090659	0.773003	20672.050781
11026.583998	1.190922	0.787263	508.523560
11026.584862	1.707404	0.787263	1983.720215
11026.585854	1.687786	0.787263	3658.003418
11026.586785	1.639655	0.787263	5184.521484
11026.587669	1.594080	0.787263	6593.687988
11026.588566	1.549812	0.787263	7983.869141
11026.589533	1.503842	0.787263	9438.083984
11026.590441	1.462427	0.787263	10765.967773
11026.591318	1.423630	0.787263	12014.491211
11026.592357	1.381912	0.787263	13450.296875
11026.593265	1.344932	0.787263	14671.495117
11026.594186	1.309200	0.787263	15877.268555
11026.595058	1.274722	0.787263	16988.826172
11026.596074	1.239269	0.787263	18247.923828
11026.596998	1.207174	0.787263	19363.353516
11026.597867	0.547650	0.787263	19839.261719
11026.598905	0.091168	0.787263	19933.894531
11026.599775	0.090674	0.787263	20012.781250
11026.600698	0.090725	0.787263	20096.521484
11026.601562	0.090685	0.787263	20174.873047
11026.602527	0.090663	0.787263	20262.363281
11026.603452	0.090696	0.787263	20346.257812
11026.604327	0.090674	0.787263	20425.597656
11026.605348	0.090780	0.787263	20518.283203
11026.606247	0.090692	0.787263	20599.816406
11026.607153	0.090721	0.787263	20682.009766
11027.610049	1.198748	0.759375	513.063965
11027.610914	1.707400	0.759375	1989.964844
11027.611979	1.684182	0.759375	3783.618896
11027.612882	1.636655	0.759375	5261.518555
11027.613763	1.591575	0.759375	6663.695801
11027.614675	1.546663	0.759375	8074.251953
11027.615702	1.498744	0.759375	9613.461914
11027.616623	1.457556	0.759375	10955.871094
11027.617488	1.420104	0.759375	12184.260742
11027.618566	1.376799	0.759375	13668.450195
11027.619461	1.340072	0.759375	14867.814453
11027.620328	1.305601	0.759375	15999.770508
11027.621205	1.270968	0.759375	17114.410156
11027.622264	1.234292	0.759375	18421.525391
11027.623161	1.202776	0.759375	19500.416016
11027.624049	0.379318	0.759375	19837.250000
11027.625047	0.091069	0.759375	19928.136719
11027.625974	0.090670	0.759375	20012.187500
11027.626901	0.090762	0.759375	20096.324219
11027.627768	0.090667	0.759375	20174.931641
11027.628815	0.090802	0.759375	20270.001953
11027.629690	0.090677	0.759375	20349.345703
11027.630559	0.090645	0.759375	20428.115234
11027.631537	0.090754	0.759375	20516.873047
11027.632485	0.090692	0.759375	20602.849609
11027.633388	0.090696	0.759375	20684.748047
11028.621848	1.271367	0.783340	638.226318
11028.622740	1.711835	0.783340	2165.182861
11028.623613	1.687881	0.783340	3638.702881
11028.624487	1.640786	0.783340	5072.750000
11028.625529	1.589158	0.783340	6728.652344
11028.626430	1.545450	0.783340	8121.103027
11028.627310	1.504127	0.783340	9444.735352
11028.628324	1.459105	0.783340	10924.267578
11028.629240	1.418595	0.783340	12223.700195
11028.630168	1.380886	0.783340	13505.163086
11028.631034	1.344038	0.783340	14669.099609
11028.632075	1.304290	0.783340	16026.865234
11028.632981	1.270400	0.783340	17177.847656
11028.633861	1.238881	0.783340	18268.062500
11028.634845	1.205200	0.783340	19453.980469
11028.635785	0.370690	0.783340	19802.429687
11028.636705	0.090743	0.783340	19885.914062
11028.637571	0.090670	0.783340	19964.433594
11028.638615	0.090747	0.783340	20059.173828
11028.639505	0.090634	0.783340	20139.837891
11028.640380	0.090699	0.783340	20219.199219
11028.641323	0.090765	0.783340	20304.791016
11028.642318	0.090721	0.783340	20395.058594
11028.643236	0.090685	0.783340	20478.306641
11028.644099	0.090721	0.783340	20556.599609
11028.645109	0.090850	0.783340	20648.357422
11029.647908	1.285005	0.769756	663.062500
11029.648874	1.712996	0.769756	2317.816162
11029.649742	1.683772	0.769756	3779.330078
11029.650636	1.635633	0.769756	5241.586426
11029.651745	1.581936	0.769756	6995.953613
11029.652643	1.537745	0.769756	8376.848633
11029.653509	1.496583	0.769756	9672.889648
11029.654525	1.451213	0.769756	11147.322266
11029.655496	1.410333	0.769756	12516.755859
11029.656376	1.373514	0.769756	13725.448242
11029.657244	1.337421	0.769756	14886.329102
11029.658347	1.296731	0.769756	16316.623047
11029.659244	1.262750	0.769756	17449.310547
11029.660106	1.231923	0.769756	18511.228516
11029.661183	1.058980	0.769756	19651.750000
11029.662143	0.146426	0.769756	19792.318359
11029.663015	0.090648	0.769756	19871.363281
11029.663870	0.090674	0.769756	19948.888672
11029.664999	0.090714	0.769756	20051.304687
11029.665873	0.090725	0.769756	20130.597656
11029.666751	0.090659	0.769756	20210.197266
11029.667744	0.090817	0.769756	20300.378906
11029.668748	0.090681	0.769756	20391.421875
11029.669637	0.090721	0.769756	20472.072266
11029.670497	0.090696	0.769756	20550.070312
11030.660702	1.340695	0.746871	773.580750
11030.661738	1.712201	0.746871	2547.420898
11030.662622	1.676144	0.746871	4029.132080
11030.663565	1.627192	0.746871	5563.574219
11030.664638	1.572810	0.746871	7251.199219
11030.665579	1.527924	0.746871	8688.975586
11030.666448	1.486282	0.746871	9980.554687
11030.667502	1.440557	0.746871	11498.901367
11030.668520	1.397999	0.746871	12922.064453
11030.669408	1.361591	0.746871	14131.157227
11030.670373	1.323640	0.746871	15408.469727
11030.671430	1.283188	0.746871	16764.800781
11030.672358	1.249025	0.746871	17923.896484
11030.673225	1.217135	0.746871	18979.152344
11030.674326	0.662552	0.746871	19708.623047
11030.675327	0.092087	0.746871	19800.802734
11030.676219	0.090674	0.746871	19881.683594
11030.677214	0.090765	0.746871	19971.996094
11030.678280	0.090710	0.746871	20068.693359
11030.679171	0.090747	0.746871	20149.548828
11030.680041	0.090890	0.746871	20228.623047
11030.681132	0.090824	0.746871	20327.712891
11030.682084	0.090637	0.746871	20414.000000
11030.682943	0.090688	0.746871	20491.902344
11030.683995	0.090773	0.746871	20587.394531
11031.686585	1.209031	0.751077	512.629028
11031.687692	1.711304	0.751077	2407.042236
11031.688651	1.677404	0.751077	4015.672363
11031.689512	1.632074	0.751077	5420.888184
11031.690552	1.579021	0.751077	7063.069824
11031.691602	1.529344	0.751077	8668.881836
11031.692482	1.487347	0.751077	9977.748047
11031.693416	1.446244	0.751077	11328.540039
11031.694491	1.401130	0.751077	12834.754883
11031.695435	1.362330	0.751077	14120.794922
11031.696304	1.327317	0.751077	15274.233398
11031.697354	1.287231	0.751077	16625.826172
11031.698376	1.249885	0.751077	17903.208984
11031.699278	1.217922	0.751077	19001.775391
11031.700246	0.793378	0.751077	19769.765625
11031.701299	0.095193	0.751077	19870.003906
11031.702221	0.090652	0.751077	19953.583984
11031.703083	0.090703	0.751077	20031.769531
11031.704158	0.090868	0.751077	20129.453125
11031.705147	0.090659	0.751077	20219.115234
11031.706040	0.090670	0.751077	20300.083984
11031.707039	0.090842	0.751077	20390.835937
11031.708081	0.090795	0.751077	20485.443359
11031.708974	0.090725	0.751077	20566.460937
11031.709830	0.090758	0.751077	20644.150391
11032.698346	1.241620	0.752015	576.111633
11032.699220	1.710029	0.752015	2070.677246
11032.700197	1.685647	0.752015	3717.554199
11032.701247	1.630950	0.752015	5430.051270
11032.702156	1.584672	0.752015	6870.517578
11032.703031	1.540873	0.752015	8218.781250
11032.704126	1.490592	0.752015	9850.979492
11032.705132	1.445361	0.752015	11305.012695
11032.706028	1.408451	0.752015	12566.984375
11032.707020	1.367948	0.752015	13923.988281
11032.708082	1.326086	0.752015	15332.291992
11032.708975	1.291062	0.752015	16485.210937
11032.709866	1.256997	0.752015	17605.195312
11032.710976	1.218428	0.752015	18957.650391
11032.711942	0.837085	0.752015	19766.275391
11032.712804	0.105483	0.752015	19857.201172
11032.713837	0.090835	0.752015	19951.033203
11032.714860	0.090732	0.752015	20043.851562
11032.715743	0.090721	0.752015	20123.958984
11032.716673	0.090740	0.752015	20208.347656
11032.717736	0.090747	0.752015	20304.812500
11032.718662	0.090699	0.752015	20388.800781
11032.719519	0.090677	0.752015	20466.511719
11032.720570	0.090787	0.752015	20561.929687
11032.721603	0.090608	0.752015	20655.527344
11033.724446	1.285137	0.742718	660.560242
11033.725361	1.712820	0.742718	2227.790283
11033.726223	1.685544	0.742718	3680.729492
11033.727311	1.630507	0.742718	5454.720703
11033.728318	1.579281	0.742718	7045.056641
11033.729199	1.536823	0.742718	8398.997070
11033.730202	1.490347	0.742718	9893.814453
11033.731260	1.443574	0.742718	11421.116211
11033.732160	1.405078	0.742718	12685.686523
11033.733022	1.367461	0.742718	13864.437500
11033.734131	1.325237	0.742718	15334.125000
11033.735094	1.288184	0.742718	16574.646484
11033.735967	1.256217	0.742718	17671.324219
11033.736997	1.219178	0.742718	18927.078125
11033.738055	0.752289	0.742718	19723.000000
11033.738944	0.097621	0.742718	19809.785156
11033.739843	0.090637	0.742718	19891.267578
11033.740930	0.090773	0.742718	19989.937500
11033.741881	0.090670	0.742718	20076.164062
11033.742752	0.090619	0.742718	20155.093750
11033.743806	0.090762	0.742718	20250.755859
11033.744822	0.090652	0.742718	20342.857422
11033.745712	0.090670	0.742718	20423.554687
11033.746667	0.090769	0.742718	20510.238281
11033.747698	0.090729	0.742718	20603.779297
11034.736064	1.198257	0.764249	510.457428
11034.737129	1.710740	0.764249	2332.395264
11034.738148	1.675836	0.764249	4040.072266
11034.739025	1.630258	0.764249	5469.808105
11034.740017	1.581101	0.764249	7038.260254
11034.741063	1.530465	0.764249	8639.126953
11034.741975	1.487025	0.764249	9995.293945
11034.742836	1.446969	0.764249	11241.133789
11034.743934	1.402683	0.764249	12781.280273
11034.744924	1.361155	0.764249	14128.823242
11034.745819	1.325830	0.764249	15315.441406
11034.746820	1.287770	0.764249	16604.498047
11034.747890	1.248823	0.764249	17940.738281
11034.748788	1.216560	0.764249	19033.208984
11034.749686	0.803405	0.764249	19754.666016
11034.750782	0.094893	0.764249	19858.667969
11034.751733	0.090586	0.764249	19944.814453
11034.752601	0.090623	0.764249	20023.474609
11034.753628	0.090681	0.764249	20116.603516
11034.754656	0.090619	0.764249	20209.759766
11034.755548	0.090630	0.764249	20290.601562
11034.756483	0.090710	0.764249	20375.416016
11034.757533	0.090743	0.764249	20470.697266
11034.758474	0.090612	0.764249	20555.962891
11034.759338	0.090721	0.764249	20634.345703
11035.762126	1.215253	0.759452	526.204407
11035.763056	1.707107	0.759452	2113.813965
11035.764118	1.680128	0.759452	3898.109863
11035.765052	1.631250	0.759452	5421.697266
11035.765974	1.584917	0.759452	6882.990723
11035.766858	1.541891	0.759452	8246.022461
11035.767805	1.498396	0.759452	9665.003906
11035.768715	1.455099	0.759452	10989.143555
11035.769649	1.415980	0.759452	12311.668945
11035.770526	1.378586	0.759452	13520.689453
11035.771547	1.338988	0.759452	14887.795898
11035.772474	1.303004	0.759452	16095.680664
11035.773362	1.269349	0.759452	17222.863281
11035.774246	1.236680	0.759452	18316.087891
11035.775250	1.200593	0.759452	19521.484375
11035.776191	0.311964	0.759452	19815.042969
11035.777054	0.090758	0.759452	19893.367187
11035.778079	0.090641	0.759452	19986.273437
11035.778966	0.090670	0.759452	20066.697266
11035.779881	0.090688	0.759452	20149.677734
11035.780746	0.090681	0.759452	20228.117187
11035.781719	0.090619	0.759452	20316.289062
11035.782641	0.090652	0.759452	20399.869141
11035.783528	0.090681	0.759452	20480.302734
11035.784461	0.090652	0.759452	20564.880859
11036.773818	1.193038	0.793052	504.655212
11036.774826	1.711685	0.793052	2230.033203
11036.775751	1.683497	0.793052	3787.268066
11036.776628	1.638131	0.793052	5223.909180
11036.777672	1.587579	0.793052	6881.341797
11036.778540	1.542601	0.793052	8220.319336
11036.779457	1.499919	0.793052	9595.745117
11036.780336	1.459775	0.793052	10878.887695
11036.781305	1.417841	0.793052	12252.775391
11036.782230	1.379901	0.793052	13529.183594
11036.783113	1.344569	0.793052	14716.438477
11036.784110	1.306516	0.793052	16019.035156
11036.785052	1.269921	0.793052	17215.300781
11036.785969	1.237123	0.793052	18349.742187
11036.786838	1.205640	0.793052	19397.443359
11036.787900	0.324086	0.793052	19741.623047
11036.788778	0.090707	0.793052	19821.263672
11036.789696	0.090641	0.793052	19904.472656
11036.790554	0.090784	0.793052	19982.365234
11036.791514	0.090762	0.793052	20069.496094
11036.792449	0.090692	0.793052	20154.292969
11036.793320	0.090736	0.793052	20233.324219
11036.794367	0.090718	0.793052	20328.306641
11036.795271	0.090740	0.793052	20410.335937
11036.796142	0.090710	0.793052	20489.345703
11036.797038	0.090809	0.793052	20570.710937
11037.800982	1.278483	0.778086	639.241333
11037.801870	1.711318	0.778086	2158.892090
11037.802741	1.688064	0.778086	3629.195801
11037.803652	1.640288	0.778086	5123.498047
11037.804666	1.588942	0.778086	6734.684570
11037.805586	1.544546	0.778086	8155.666992
11037.806458	1.503142	0.778086	9466.407227
11037.807459	1.458179	0.778086	10926.043945
11037.808375	1.417976	0.778086	12224.910156
11037.809298	1.380736	0.778086	13499.330078
11037.810166	1.344075	0.778086	14665.986328
11037.811220	1.304114	0.778086	16040.522461
11037.812117	1.270298	0.778086	17179.980469
11037.812996	1.238796	0.778086	18268.882812
11037.813984	1.204871	0.778086	19459.294922
11037.814928	0.374960	0.778086	19813.257812
11037.815851	0.090853	0.778086	19897.115234
11037.816714	0.090747	0.778086	19975.429687
11037.817765	0.090688	0.778086	20070.744141
11037.818640	0.090656	0.778086	20150.068359
11037.819513	0.090674	0.778086	20229.226562
11037.820465	0.090710	0.778086	20315.582031
11037.821428	0.090681	0.778086	20402.908203
11037.822340	0.090699	0.778086	20485.626953
11037.823216	0.090677	0.778086	20565.060547
11037.824249	0.090630	0.778086	20658.681641
11038.810663	1.287601	0.812267	666.977478
11038.811566	1.712142	0.812267	2213.041992
11038.812437	1.686478	0.812267	3681.964600
11038.813447	1.635022	0.812267	5333.336914
11038.814455	1.583097	0.812267	6929.098633
11038.815336	1.540294	0.812267	8286.097656
11038.816202	1.498019	0.812267	9583.381836
11038.817273	1.451411	0.812267	11137.842773
11038.818187	1.412095	0.812267	12428.497070
11038.819069	1.376217	0.812267	13642.320312
11038.820046	1.337190	0.812267	14948.754883
11038.821063	1.297269	0.812267	16268.078125
11038.821954	1.264116	0.812267	17394.406250
11038.822820	1.232113	0.812267	18461.416016
11038.823918	1.085497	0.812267	19653.291016
11038.824853	0.159569	0.812267	19802.488281
11038.825730	0.090608	0.812267	19881.951172
11038.826723	0.090718	0.812267	19972.033203
11038.827717	0.090648	0.812267	20062.136719
11038.828594	0.090674	0.812267	20141.658203
11038.829449	0.090710	0.812267	20219.214844
11038.830519	0.090853	0.812267	20316.427734
11038.831427	0.090721	0.812267	20398.802734
11038.832306	0.090743	0.812267	20478.566406
11038.833266	0.090839	0.812267	20565.771484
11039.839739	1.226268	0.769828	600.871521
11039.840795	1.712662	0.769828	2409.442871
11039.841687	1.679641	0.769828	3907.682617
11039.842555	1.633759	0.769828	5325.785156
11039.843608	1.581163	0.769828	6990.750000
11039.844567	1.535193	0.769828	8463.000000
11039.845440	1.493317	0.769828	9766.665039
11039.846368	1.451913	0.769828	11114.040039
11039.847432	1.408037	0.769828	12612.191406
11039.848316	1.370753	0.769828	13823.937500
11039.849178	1.336058	0.769828	14975.620117
11039.850205	1.295739	0.769828	16306.343750
11039.851182	1.260234	0.769828	17537.593750
11039.852061	1.228605	0.769828	18617.537109
11039.852953	1.100068	0.769828	19598.798828
11039.854056	0.150417	0.769828	19764.708984
11039.854947	0.090656	0.769828	19845.482422
11039.855809	0.090725	0.769828	19923.687500
11039.856867	0.090828	0.769828	20019.783203
11039.857845	0.090703	0.769828	20108.490234
11039.858717	0.090714	0.769828	20187.593750
11039.859605	0.090787	0.769828	20268.212891
11039.860698	0.090842	0.769828	20367.503906
11039.861576	0.090692	0.769828	20447.130859
11039.862435	0.090784	0.769828	20525.113281
11040.848331	1.202794	0.772459	518.404297
11040.849198	1.707704	0.772459	1998.983521
11040.850261	1.683486	0.772459	3788.529297
11040.851198	1.634846	0.772459	5320.380371
11040.852074	1.590106	0.772459	6713.313477
11040.853026	1.544158	0.772459	8183.351562
11040.854065	1.495345	0.772459	9737.015625
11040.854953	1.455084	0.772459	11029.130859
11040.855813	1.417907	0.772459	12248.530273
11040.856847	1.375342	0.772459	13670.633789
11040.857802	1.337150	0.772459	14947.611328
11040.858680	1.302795	0.772459	16091.465820
11040.859623	1.267775	0.772459	17286.976562
11040.860689	1.229817	0.772459	18597.960937
11040.861593	1.167030	0.772459	19652.957031
11040.862461	0.243311	0.772459	19864.150391
11040.863533	0.090699	0.772459	19961.380859
11040.864484	0.090696	0.772459	20047.632812
11040.865358	0.090795	0.772459	20126.988281
11040.866270	0.090897	0.772459	20209.886719
11040.867331	0.090776	0.772459	20306.201172
11040.868203	0.090729	0.772459	20385.316406
11040.869061	0.090696	0.772459	20463.132812
11040.870102	0.090809	0.772459	20557.666016
11040.871049	0.090743	0.772459	20643.599609
11041.881535	1.193284	0.693258	507.145569
11041.882498	1.706473	0.693258	2150.479492
11041.883560	1.678700	0.693258	3933.258789
11041.884493	1.630444	0.693258	5454.463379
11041.885365	1.585349	0.693258	6836.887695
11041.886445	1.533973	0.693258	8493.579102
11041.887446	1.486622	0.693258	9981.688477
11041.888338	1.447277	0.693258	11272.659180
11041.889327	1.406239	0.693258	12663.429687
11041.890391	1.362448	0.693258	14113.074219
11041.891306	1.325878	0.693258	15326.251953
11041.892168	1.291227	0.693258	16439.289062
11041.893261	1.252284	0.693258	17808.035156
11041.894246	1.217281	0.693258	19007.056641
11041.895131	0.887831	0.693258	19792.787109
11041.896132	0.108721	0.693258	19901.617187
11041.897190	0.090729	0.693258	19997.607422
11041.898076	0.090692	0.693258	20077.960937
11041.898959	0.090817	0.693258	20158.152344
11041.900035	0.090828	0.693258	20255.882812
11041.900993	0.090732	0.693258	20342.804687
11041.901849	0.090696	0.693258	20420.439453
11041.902880	0.090798	0.693258	20514.052734
11041.903913	0.090736	0.693258	20607.783203
11041.904803	0.090714	0.693258	20688.519531
11042.885048	1.182132	0.704082	497.677765
11042.886068	1.709960	0.704082	2241.836670
11042.887121	1.677462	0.704082	4008.204346
11042.888010	1.630459	0.704082	5457.682617
11042.888933	1.583628	0.704082	6919.371094
11042.889991	1.532897	0.704082	8541.175781
11042.890943	1.488036	0.704082	9957.786133
11042.891811	1.449086	0.704082	11215.592773
11042.892868	1.405195	0.704082	12700.884766
11042.893894	1.362858	0.704082	14099.176758
11042.894781	1.327566	0.704082	15276.727539
11042.895763	1.290487	0.704082	16543.986328
11042.896820	1.251163	0.704082	17866.466797
11042.897747	1.217999	0.704082	18995.552734
11042.898608	0.899799	0.704082	19770.279297
11042.899694	0.099877	0.704082	19878.746094
11042.900702	0.090674	0.704082	19970.144531
11042.901573	0.090725	0.704082	20049.166016
11042.902538	0.090820	0.704082	20136.808594
11042.903600	0.090780	0.704082	20233.216797
11042.904505	0.090732	0.704082	20315.330078
11042.905369	0.090765	0.704082	20393.751953
11042.906452	0.090784	0.704082	20492.070312
11042.907437	0.090729	0.704082	20581.437500
11042.908338	0.090787	0.704082	20663.236328
11043.922473	1.274747	0.656463	685.814026
11043.923526	1.712227	0.656463	2488.788574
11043.924431	1.676851	0.656463	4006.338379
11043.925292	1.629708	0.656463	5409.517090
11043.926395	1.575894	0.656463	7147.727539
11043.927372	1.529264	0.656463	8641.818359
11043.928246	1.488073	0.656463	9942.393555
11043.929325	1.440355	0.656463	11496.537109
11043.930383	1.396458	0.656463	12973.989258
11043.931270	1.359803	0.656463	14180.134766
11043.932209	1.322629	0.656463	15422.083984
11043.933290	1.281270	0.656463	16807.136719
11043.934231	1.247076	0.656463	17980.634766
11043.935102	1.215795	0.656463	19039.591797
11043.936179	0.624906	0.656463	19712.615234
11043.937186	0.091626	0.656463	19804.882812
11043.938079	0.090692	0.656463	19885.871094
11043.939049	0.090732	0.656463	19973.880859
11043.940091	0.090754	0.656463	20068.447266
11043.941011	0.090718	0.656463	20151.908203
11043.941872	0.090707	0.656463	20230.005859
11043.942954	0.090828	0.656463	20328.281250
11043.943944	0.090656	0.656463	20418.029297
11043.944823	0.090725	0.656463	20497.777344
11043.945819	0.090857	0.656463	20588.271484
11044.922892	1.270016	0.659058	637.547974
11044.923884	1.713131	0.659058	2336.974121
11044.924781	1.681619	0.659058	3845.386230
11044.925770	1.630518	0.659058	5457.968262
11044.926828	1.577454	0.659058	7126.914062
11044.927731	1.533340	0.659058	8511.519531
11044.928612	1.490577	0.659058	9824.717773
11044.929733	1.442391	0.659058	11441.638672
11044.930694	1.402266	0.659058	12789.215820
11044.931566	1.366220	0.659058	13980.559570
11044.932608	1.324893	0.659058	15361.097656
11044.933632	1.285638	0.659058	16677.591797
11044.934524	1.253075	0.659058	17795.333984
11044.935457	1.219497	0.659058	18933.125000
11044.936533	0.728643	0.659058	19717.144531
11044.937463	0.095684	0.659058	19806.130859
11044.938324	0.090626	0.659058	19884.160156
11044.939389	0.090791	0.659058	19980.853516
11044.940402	0.090721	0.659058	20072.753906
11044.941276	0.090725	0.659058	20152.046875
11044.942236	0.090765	0.659058	20239.181641
11044.943307	0.090824	0.659058	20336.455078
11044.944211	0.090725	0.659058	20418.470703
11044.945076	0.090740	0.659058	20496.960937
11044.946126	0.090809	0.659058	20592.310547
11045.962178	1.196411	0.606665	512.063965
11045.963039	1.707081	0.606665	1981.860840
11045.964044	1.687456	0.606665	3677.754150
11045.964951	1.639504	0.606665	5164.784668
11045.965843	1.594450	0.606665	6587.033691
11045.966796	1.548735	0.606665	8062.978516
11045.967753	1.503223	0.606665	9501.562500
11045.968651	1.461566	0.606665	10814.048828
11045.969542	1.422477	0.606665	12081.475586
11045.970553	1.382047	0.606665	13478.725586
11045.971488	1.344346	0.606665	14735.688477
11045.972355	1.309933	0.606665	15871.400391
11045.973391	1.271858	0.606665	17189.044922
11045.974289	1.238767	0.606665	18301.457031
11045.975209	1.206313	0.606665	19411.265625
11045.976085	0.496736	0.606665	19846.406250
11045.977024	0.091648	0.606665	19932.462891
11045.977957	0.090732	0.606665	20017.117187
11045.978843	0.090696	0.606665	20097.474609
11045.979810	0.090729	0.606665	20185.208984
11045.980759	0.090758	0.606665	20271.337891
11045.981683	0.090703	0.606665	20355.148437
11045.982546	0.090780	0.606665	20433.492187
11045.983577	0.090710	0.606665	20527.015625
11045.984458	0.090736	0.606665	20606.955078
11045.985328	0.090729	0.606665	20685.888672
11046.961596	1.190629	0.596566	507.207794
11046.962587	1.707279	0.596566	2199.121338
11046.963608	1.679304	0.596566	3913.690918
11046.964505	1.632986	0.596566	5378.479492
11046.965371	1.587144	0.596566	6752.945801
11046.966463	1.535797	0.596566	8430.036133
11046.967401	1.491786	0.596566	9829.331055
11046.968285	1.452411	0.596566	11113.261719
11046.969268	1.411274	0.596566	12500.544922
11046.970277	1.369281	0.596566	13882.149414
11046.971171	1.333414	0.596566	15074.221680
11046.972038	1.298507	0.596566	16200.027344
11046.973130	1.259648	0.596566	17575.562500
11046.974048	1.226378	0.596566	18701.376953
11046.974924	1.132339	0.596566	19693.306641
11046.975917	0.189346	0.596566	19881.326172
11046.976928	0.090696	0.596566	19973.019531
11046.977806	0.090769	0.596566	20052.714844
11046.978662	0.090776	0.596566	20130.419922
11046.979723	0.090762	0.596566	20226.718750
11046.980642	0.090776	0.596566	20310.142578
11046.981516	0.090725	0.596566	20389.435547
11046.982486	0.090839	0.596566	20477.548828
11046.983503	0.090721	0.596566	20569.812500
11046.984397	0.090795	0.596566	20650.982422
11047.999006	1.291428	0.622634	657.336975
11048.000033	1.713417	0.622634	2417.015869
11048.000925	1.679934	0.622634	3915.517090
11048.001891	1.630573	0.622634	5490.650391
11048.002935	1.577369	0.622634	7137.423828
11048.003864	1.532139	0.622634	8560.780273
11048.004731	1.490618	0.622634	9853.145508
11048.005808	1.444080	0.622634	11408.418945
11048.006820	1.401551	0.622634	12826.789062
11048.007703	1.364978	0.622634	14032.064453
11048.008710	1.326017	0.622634	15367.363281
11048.009768	1.284844	0.622634	16726.728516
11048.010676	1.251134	0.622634	17862.757812
11048.011538	1.219215	0.622634	18913.720703
11048.012634	0.723091	0.622634	19706.228516
11048.013623	0.093567	0.622634	19798.765625
11048.014511	0.090740	0.622634	19879.341797
11048.015505	0.090861	0.622634	19969.658203
11048.016553	0.090802	0.622634	20064.818359
11048.017441	0.090791	0.622634	20145.441406
11048.018324	0.090813	0.622634	20225.628906
11048.019426	0.090853	0.622634	20325.750000
11048.020385	0.090776	0.622634	20412.804687
11048.021250	0.090743	0.622634	20491.296875
11048.022304	0.090883	0.622634	20587.087891
11048.999472	1.293142	0.643319	678.899597
11049.000402	1.713347	0.643319	2272.312500
11049.001263	1.684966	0.643319	3723.067871
11049.002313	1.631371	0.643319	5436.007324
11049.003334	1.579797	0.643319	7048.980469
11049.004210	1.537123	0.643319	8395.500000
11049.005184	1.491738	0.643319	9848.453125
11049.006261	1.444233	0.643319	11403.892578
11049.007170	1.405184	0.643319	12681.205078
11049.008043	1.368256	0.643319	13875.692383
11049.009114	1.326401	0.643319	15296.268555
11049.010114	1.287989	0.643319	16584.257812
11049.011012	1.255038	0.643319	17711.281250
11049.011997	1.220142	0.643319	18913.121094
11049.013064	0.758130	0.643319	19722.044922
11049.013967	0.097247	0.643319	19809.859375
11049.014832	0.090813	0.643319	19888.412109
11049.015945	0.090908	0.643319	19989.593750
11049.016905	0.090747	0.643319	20076.710937
11049.017771	0.090740	0.643319	20155.291016
11049.018823	0.090959	0.643319	20250.980469
11049.019853	0.090729	0.643319	20344.431641
11049.020748	0.090784	0.643319	20425.683594
11049.021662	0.090824	0.643319	20508.697266
11049.022718	0.090835	0.643319	20604.619141
11050.034616	1.197250	0.662337	506.436646
11050.035687	1.711443	0.662337	2339.392090
11050.036691	1.676287	0.662337	4022.383789
11050.037587	1.629770	0.662337	5482.658203
11050.038581	1.579896	0.662337	7053.075195
11050.039646	1.529498	0.662337	8681.991211
11050.040547	1.485842	0.662337	10020.735352
11050.041419	1.445735	0.662337	11281.416016
11050.042530	1.400977	0.662337	12837.901367
11050.043496	1.361429	0.662337	14153.041992
11050.044365	1.326768	0.662337	15306.002930
11050.045404	1.286924	0.662337	16643.117187
11050.046440	1.249208	0.662337	17937.296875
11050.047325	1.217538	0.662337	19014.818359
11050.048270	0.795304	0.662337	19766.380859
11050.049326	0.095830	0.662337	19867.578125
11050.050272	0.090809	0.662337	19953.484375
11050.051131	0.090769	0.662337	20031.455078
11050.052186	0.090879	0.662337	20127.332031
11050.053200	0.090740	0.662337	20219.341797
11050.054067	0.090751	0.662337	20298.023437
11050.055020	0.090846	0.662337	20384.599609
11050.056078	0.090868	0.662337	20480.738281
11050.057002	0.090718	0.662337	20564.560547
11050.057869	0.090773	0.662337	20643.259766
11051.040209	1.208522	0.652057	539.000671
11051.041086	1.709231	0.652057	2037.996094
11051.042041	1.688031	0.652057	3650.065674
11051.043070	1.634740	0.652057	5332.212891
11051.043954	1.589513	0.652057	6737.342285
11051.044817	1.546783	0.652057	8072.216309
11051.045882	1.497546	0.652057	9667.103516
11051.046829	1.454491	0.652057	11044.506836
11051.047700	1.417042	0.652057	12278.750977
11051.048646	1.378286	0.652057	13582.609375
11051.049693	1.336135	0.652057	14981.542969
11051.050588	1.301136	0.652057	16146.060547
11051.051459	1.268430	0.652057	17250.863281
11051.052515	1.230743	0.652057	18550.527344
11051.053470	1.150964	0.652057	19649.699219
11051.054355	0.223066	0.652057	19847.113281
11051.055276	0.090674	0.652057	19930.623047
11051.056336	0.090765	0.652057	20026.833984
11051.057223	0.090692	0.652057	20107.277344
11051.058083	0.090765	0.652057	20185.335937
11051.059113	0.090718	0.652057	20278.775391
11051.060059	0.090710	0.652057	20364.587891
11051.060929	0.090685	0.652057	20443.484375
11051.061810	0.090725	0.652057	20523.414062
11051.062920	0.090762	0.652057	20624.160156
11052.069461	1.337168	0.655847	718.059204
11052.070360	1.713669	0.655847	2258.647949
11052.071229	1.682604	0.655847	3720.830566
11052.072364	1.626665	0.655847	5567.095215
11052.073321	1.577992	0.655847	7077.233398
11052.074186	1.536196	0.655847	8406.042969
11052.075247	1.487087	0.655847	9983.842773
11052.076276	1.441494	0.655847	11467.140625
11052.077166	1.404042	0.655847	12716.737305
11052.078114	1.365297	0.655847	14011.038086
11052.079194	1.322553	0.655847	15439.394531
11052.080123	1.286539	0.655847	16634.589844
11052.080986	1.254250	0.655847	17717.007812
11052.082064	1.216996	0.655847	19028.929687
11052.083088	0.708776	0.655847	19754.716797
11052.083958	0.096482	0.655847	19838.656250
11052.084927	0.090820	0.655847	19926.660156
11052.085978	0.090795	0.655847	20022.085937
11052.086889	0.090776	0.655847	20104.783203
11052.087754	0.090736	0.655847	20183.269531
11052.088840	0.090875	0.655847	20281.960937
11052.089828	0.090762	0.655847	20371.632812
11052.090721	0.090729	0.655847	20452.654297
11052.091717	0.090875	0.655847	20543.166016
11052.092776	0.090784	0.655847	20639.306641
